PE IR       SUBTECH     SPECTRUM    ASCII       PEDS        4.00        
   -1
TE110A_025_80K_AFTER_100K_2MIN.ASC
20/05/14
12:28:24.00
20/05/14
12:28:24.00
Administrator
TE110A.Thursday, May 14 2020, 008.
1000.000000
#HDR
-1
-1
#GR
cm-1
A
1.0
0.0
6000.000000
-2.000000
2501
8
1.303944
1.251586
#DATA
6000.000000	1.290081
5998.000000	1.289751
5996.000000	1.289360
5994.000000	1.289183
5992.000000	1.289100
5990.000000	1.289004
5988.000000	1.288816
5986.000000	1.288746
5984.000000	1.289039
5982.000000	1.289309
5980.000000	1.289476
5978.000000	1.289451
5976.000000	1.289456
5974.000000	1.289510
5972.000000	1.289387
5970.000000	1.289189
5968.000000	1.289129
5966.000000	1.289075
5964.000000	1.288688
5962.000000	1.288354
5960.000000	1.288313
5958.000000	1.288135
5956.000000	1.287956
5954.000000	1.288207
5952.000000	1.288682
5950.000000	1.288966
5948.000000	1.288629
5946.000000	1.288282
5944.000000	1.288091
5942.000000	1.288032
5940.000000	1.288055
5938.000000	1.288046
5936.000000	1.287970
5934.000000	1.287769
5932.000000	1.287650
5930.000000	1.287727
5928.000000	1.287827
5926.000000	1.287953
5924.000000	1.288036
5922.000000	1.288061
5920.000000	1.288145
5918.000000	1.288272
5916.000000	1.288093
5914.000000	1.287894
5912.000000	1.287646
5910.000000	1.287766
5908.000000	1.287910
5906.000000	1.287717
5904.000000	1.287419
5902.000000	1.287128
5900.000000	1.286762
5898.000000	1.286662
5896.000000	1.287085
5894.000000	1.287742
5892.000000	1.288098
5890.000000	1.287859
5888.000000	1.287352
5886.000000	1.287091
5884.000000	1.286836
5882.000000	1.286876
5880.000000	1.287280
5878.000000	1.287417
5876.000000	1.287091
5874.000000	1.286779
5872.000000	1.286688
5870.000000	1.286905
5868.000000	1.286959
5866.000000	1.286872
5864.000000	1.286793
5862.000000	1.286550
5860.000000	1.286188
5858.000000	1.286245
5856.000000	1.286326
5854.000000	1.286276
5852.000000	1.285966
5850.000000	1.285795
5848.000000	1.286032
5846.000000	1.286336
5844.000000	1.286417
5842.000000	1.286262
5840.000000	1.286259
5838.000000	1.286134
5836.000000	1.285944
5834.000000	1.285705
5832.000000	1.285849
5830.000000	1.286121
5828.000000	1.286071
5826.000000	1.285935
5824.000000	1.285768
5822.000000	1.285779
5820.000000	1.285964
5818.000000	1.286099
5816.000000	1.285824
5814.000000	1.285195
5812.000000	1.284901
5810.000000	1.285159
5808.000000	1.285594
5806.000000	1.285663
5804.000000	1.285551
5802.000000	1.285510
5800.000000	1.285445
5798.000000	1.285474
5796.000000	1.285722
5794.000000	1.285855
5792.000000	1.285958
5790.000000	1.285796
5788.000000	1.285663
5786.000000	1.285739
5784.000000	1.285850
5782.000000	1.285939
5780.000000	1.285940
5778.000000	1.285637
5776.000000	1.285469
5774.000000	1.285462
5772.000000	1.285604
5770.000000	1.285650
5768.000000	1.285503
5766.000000	1.285449
5764.000000	1.285303
5762.000000	1.285139
5760.000000	1.285245
5758.000000	1.285284
5756.000000	1.285204
5754.000000	1.284827
5752.000000	1.284584
5750.000000	1.284673
5748.000000	1.284817
5746.000000	1.284848
5744.000000	1.284502
5742.000000	1.284068
5740.000000	1.283871
5738.000000	1.284218
5736.000000	1.284430
5734.000000	1.284504
5732.000000	1.284394
5730.000000	1.284404
5728.000000	1.284430
5726.000000	1.284396
5724.000000	1.284393
5722.000000	1.284480
5720.000000	1.284474
5718.000000	1.284361
5716.000000	1.284169
5714.000000	1.284113
5712.000000	1.284285
5710.000000	1.284578
5708.000000	1.284552
5706.000000	1.284394
5704.000000	1.284224
5702.000000	1.284195
5700.000000	1.284181
5698.000000	1.284034
5696.000000	1.283936
5694.000000	1.283740
5692.000000	1.283511
5690.000000	1.283459
5688.000000	1.283789
5686.000000	1.284089
5684.000000	1.283922
5682.000000	1.283592
5680.000000	1.283540
5678.000000	1.283691
5676.000000	1.283594
5674.000000	1.283302
5672.000000	1.283071
5670.000000	1.283115
5668.000000	1.283203
5666.000000	1.283241
5664.000000	1.283095
5662.000000	1.283073
5660.000000	1.283267
5658.000000	1.283568
5656.000000	1.283525
5654.000000	1.283344
5652.000000	1.283368
5650.000000	1.283555
5648.000000	1.283587
5646.000000	1.283433
5644.000000	1.283108
5642.000000	1.282771
5640.000000	1.282579
5638.000000	1.282730
5636.000000	1.282946
5634.000000	1.282987
5632.000000	1.283098
5630.000000	1.283303
5628.000000	1.283206
5626.000000	1.282772
5624.000000	1.282479
5622.000000	1.282586
5620.000000	1.282786
5618.000000	1.282906
5616.000000	1.282926
5614.000000	1.282817
5612.000000	1.282749
5610.000000	1.282604
5608.000000	1.282447
5606.000000	1.282287
5604.000000	1.282272
5602.000000	1.282291
5600.000000	1.282172
5598.000000	1.282128
5596.000000	1.282258
5594.000000	1.282359
5592.000000	1.282119
5590.000000	1.281883
5588.000000	1.281792
5586.000000	1.281916
5584.000000	1.281913
5582.000000	1.281816
5580.000000	1.281723
5578.000000	1.281733
5576.000000	1.281789
5574.000000	1.281839
5572.000000	1.281797
5570.000000	1.281752
5568.000000	1.281729
5566.000000	1.281763
5564.000000	1.281666
5562.000000	1.281501
5560.000000	1.281515
5558.000000	1.281566
5556.000000	1.281733
5554.000000	1.281701
5552.000000	1.281524
5550.000000	1.281276
5548.000000	1.281137
5546.000000	1.281239
5544.000000	1.281290
5542.000000	1.281296
5540.000000	1.281372
5538.000000	1.281574
5536.000000	1.281625
5534.000000	1.281591
5532.000000	1.281513
5530.000000	1.281487
5528.000000	1.281518
5526.000000	1.281564
5524.000000	1.281699
5522.000000	1.281695
5520.000000	1.281395
5518.000000	1.281029
5516.000000	1.280740
5514.000000	1.280620
5512.000000	1.280415
5510.000000	1.280276
5508.000000	1.280231
5506.000000	1.280350
5504.000000	1.280497
5502.000000	1.280515
5500.000000	1.280628
5498.000000	1.280651
5496.000000	1.280567
5494.000000	1.280290
5492.000000	1.280148
5490.000000	1.280301
5488.000000	1.280541
5486.000000	1.280668
5484.000000	1.280721
5482.000000	1.280659
5480.000000	1.280298
5478.000000	1.279617
5476.000000	1.279401
5474.000000	1.279862
5472.000000	1.280321
5470.000000	1.280158
5468.000000	1.279874
5466.000000	1.279809
5464.000000	1.279770
5462.000000	1.279693
5460.000000	1.279826
5458.000000	1.280077
5456.000000	1.280203
5454.000000	1.280154
5452.000000	1.279870
5450.000000	1.279545
5448.000000	1.279442
5446.000000	1.279567
5444.000000	1.279485
5442.000000	1.279458
5440.000000	1.279648
5438.000000	1.279812
5436.000000	1.279800
5434.000000	1.279545
5432.000000	1.279285
5430.000000	1.279190
5428.000000	1.279420
5426.000000	1.279846
5424.000000	1.279999
5422.000000	1.279904
5420.000000	1.279642
5418.000000	1.279251
5416.000000	1.278948
5414.000000	1.278906
5412.000000	1.279076
5410.000000	1.279414
5408.000000	1.279620
5406.000000	1.279483
5404.000000	1.279191
5402.000000	1.279018
5400.000000	1.279065
5398.000000	1.278953
5396.000000	1.278955
5394.000000	1.279083
5392.000000	1.279155
5390.000000	1.279068
5388.000000	1.278772
5386.000000	1.278739
5384.000000	1.278920
5382.000000	1.279053
5380.000000	1.278616
5378.000000	1.278250
5376.000000	1.278474
5374.000000	1.279078
5372.000000	1.279211
5370.000000	1.278818
5368.000000	1.278404
5366.000000	1.278364
5364.000000	1.278549
5362.000000	1.278836
5360.000000	1.279019
5358.000000	1.278898
5356.000000	1.278356
5354.000000	1.277814
5352.000000	1.277808
5350.000000	1.277898
5348.000000	1.277647
5346.000000	1.277567
5344.000000	1.278019
5342.000000	1.278282
5340.000000	1.278034
5338.000000	1.277936
5336.000000	1.278258
5334.000000	1.278539
5332.000000	1.278295
5330.000000	1.278014
5328.000000	1.278093
5326.000000	1.278420
5324.000000	1.278686
5322.000000	1.278521
5320.000000	1.278265
5318.000000	1.278110
5316.000000	1.278012
5314.000000	1.278043
5312.000000	1.278021
5310.000000	1.277874
5308.000000	1.277814
5306.000000	1.278002
5304.000000	1.278106
5302.000000	1.277952
5300.000000	1.277843
5298.000000	1.277930
5296.000000	1.278054
5294.000000	1.278039
5292.000000	1.278057
5290.000000	1.277978
5288.000000	1.277783
5286.000000	1.277680
5284.000000	1.277663
5282.000000	1.277735
5280.000000	1.277834
5278.000000	1.277871
5276.000000	1.277847
5274.000000	1.277693
5272.000000	1.277507
5270.000000	1.277315
5268.000000	1.277124
5266.000000	1.277061
5264.000000	1.277185
5262.000000	1.277553
5260.000000	1.277736
5258.000000	1.277404
5256.000000	1.276941
5254.000000	1.277017
5252.000000	1.277201
5250.000000	1.277142
5248.000000	1.277022
5246.000000	1.277243
5244.000000	1.277562
5242.000000	1.277663
5240.000000	1.277556
5238.000000	1.277303
5236.000000	1.277064
5234.000000	1.277039
5232.000000	1.277143
5230.000000	1.277195
5228.000000	1.277098
5226.000000	1.277032
5224.000000	1.277099
5222.000000	1.277063
5220.000000	1.277114
5218.000000	1.277141
5216.000000	1.277179
5214.000000	1.277044
5212.000000	1.276855
5210.000000	1.276664
5208.000000	1.276686
5206.000000	1.277109
5204.000000	1.277395
5202.000000	1.277268
5200.000000	1.276906
5198.000000	1.276787
5196.000000	1.276841
5194.000000	1.276933
5192.000000	1.276940
5190.000000	1.276886
5188.000000	1.276765
5186.000000	1.276712
5184.000000	1.276843
5182.000000	1.277060
5180.000000	1.277030
5178.000000	1.276808
5176.000000	1.276724
5174.000000	1.276762
5172.000000	1.276741
5170.000000	1.276812
5168.000000	1.277002
5166.000000	1.277050
5164.000000	1.276944
5162.000000	1.276888
5160.000000	1.276862
5158.000000	1.276689
5156.000000	1.276663
5154.000000	1.276830
5152.000000	1.277032
5150.000000	1.276941
5148.000000	1.276832
5146.000000	1.276879
5144.000000	1.277029
5142.000000	1.276979
5140.000000	1.276826
5138.000000	1.276940
5136.000000	1.277103
5134.000000	1.277117
5132.000000	1.276919
5130.000000	1.276801
5128.000000	1.276774
5126.000000	1.276793
5124.000000	1.276888
5122.000000	1.276805
5120.000000	1.276605
5118.000000	1.276417
5116.000000	1.276439
5114.000000	1.276558
5112.000000	1.276647
5110.000000	1.276666
5108.000000	1.276538
5106.000000	1.276406
5104.000000	1.276443
5102.000000	1.276476
5100.000000	1.276445
5098.000000	1.276494
5096.000000	1.276617
5094.000000	1.276679
5092.000000	1.276665
5090.000000	1.276749
5088.000000	1.276669
5086.000000	1.276470
5084.000000	1.276307
5082.000000	1.276361
5080.000000	1.276423
5078.000000	1.276366
5076.000000	1.276293
5074.000000	1.276363
5072.000000	1.276583
5070.000000	1.276738
5068.000000	1.276739
5066.000000	1.276689
5064.000000	1.276631
5062.000000	1.276607
5060.000000	1.276542
5058.000000	1.276608
5056.000000	1.276760
5054.000000	1.276783
5052.000000	1.276661
5050.000000	1.276570
5048.000000	1.276583
5046.000000	1.276583
5044.000000	1.276642
5042.000000	1.276721
5040.000000	1.276659
5038.000000	1.276502
5036.000000	1.276455
5034.000000	1.276554
5032.000000	1.276669
5030.000000	1.276613
5028.000000	1.276543
5026.000000	1.276562
5024.000000	1.276554
5022.000000	1.276420
5020.000000	1.276332
5018.000000	1.276344
5016.000000	1.276321
5014.000000	1.276253
5012.000000	1.276234
5010.000000	1.276210
5008.000000	1.276189
5006.000000	1.276166
5004.000000	1.276248
5002.000000	1.276252
5000.000000	1.276174
4998.000000	1.276091
4996.000000	1.276074
4994.000000	1.276046
4992.000000	1.276078
4990.000000	1.276208
4988.000000	1.276342
4986.000000	1.276372
4984.000000	1.276261
4982.000000	1.276143
4980.000000	1.276225
4978.000000	1.276379
4976.000000	1.276393
4974.000000	1.276205
4972.000000	1.276060
4970.000000	1.276211
4968.000000	1.276400
4966.000000	1.276305
4964.000000	1.276074
4962.000000	1.276134
4960.000000	1.276297
4958.000000	1.276310
4956.000000	1.276290
4954.000000	1.276262
4952.000000	1.276254
4950.000000	1.276328
4948.000000	1.276398
4946.000000	1.276451
4944.000000	1.276482
4942.000000	1.276398
4940.000000	1.276213
4938.000000	1.276220
4936.000000	1.276366
4934.000000	1.276326
4932.000000	1.276172
4930.000000	1.276217
4928.000000	1.276358
4926.000000	1.276294
4924.000000	1.276109
4922.000000	1.276120
4920.000000	1.276262
4918.000000	1.276230
4916.000000	1.276157
4914.000000	1.276123
4912.000000	1.276046
4910.000000	1.275948
4908.000000	1.276090
4906.000000	1.276374
4904.000000	1.276473
4902.000000	1.276342
4900.000000	1.276178
4898.000000	1.276103
4896.000000	1.276129
4894.000000	1.276150
4892.000000	1.276077
4890.000000	1.275953
4888.000000	1.275961
4886.000000	1.276104
4884.000000	1.276208
4882.000000	1.276198
4880.000000	1.276177
4878.000000	1.276153
4876.000000	1.276092
4874.000000	1.276094
4872.000000	1.276145
4870.000000	1.276101
4868.000000	1.276022
4866.000000	1.276133
4864.000000	1.276245
4862.000000	1.276189
4860.000000	1.276116
4858.000000	1.276142
4856.000000	1.276176
4854.000000	1.276241
4852.000000	1.276362
4850.000000	1.276302
4848.000000	1.276085
4846.000000	1.276076
4844.000000	1.276221
4842.000000	1.276296
4840.000000	1.276202
4838.000000	1.276062
4836.000000	1.275964
4834.000000	1.276017
4832.000000	1.276124
4830.000000	1.276138
4828.000000	1.276049
4826.000000	1.276029
4824.000000	1.276123
4822.000000	1.276138
4820.000000	1.276066
4818.000000	1.276012
4816.000000	1.275979
4814.000000	1.275939
4812.000000	1.276034
4810.000000	1.276132
4808.000000	1.276055
4806.000000	1.275899
4804.000000	1.275929
4802.000000	1.276094
4800.000000	1.276148
4798.000000	1.276046
4796.000000	1.275897
4794.000000	1.275748
4792.000000	1.275653
4790.000000	1.275642
4788.000000	1.275760
4786.000000	1.275972
4784.000000	1.276128
4782.000000	1.275932
4780.000000	1.275584
4778.000000	1.275525
4776.000000	1.275726
4774.000000	1.275845
4772.000000	1.275870
4770.000000	1.275897
4768.000000	1.275826
4766.000000	1.275790
4764.000000	1.275890
4762.000000	1.275929
4760.000000	1.275851
4758.000000	1.275856
4756.000000	1.275878
4754.000000	1.275801
4752.000000	1.275740
4750.000000	1.275733
4748.000000	1.275662
4746.000000	1.275607
4744.000000	1.275673
4742.000000	1.275715
4740.000000	1.275678
4738.000000	1.275694
4736.000000	1.275749
4734.000000	1.275717
4732.000000	1.275614
4730.000000	1.275583
4728.000000	1.275615
4726.000000	1.275618
4724.000000	1.275573
4722.000000	1.275530
4720.000000	1.275549
4718.000000	1.275555
4716.000000	1.275556
4714.000000	1.275547
4712.000000	1.275487
4710.000000	1.275427
4708.000000	1.275464
4706.000000	1.275512
4704.000000	1.275476
4702.000000	1.275478
4700.000000	1.275576
4698.000000	1.275603
4696.000000	1.275497
4694.000000	1.275428
4692.000000	1.275424
4690.000000	1.275318
4688.000000	1.275245
4686.000000	1.275432
4684.000000	1.275608
4682.000000	1.275523
4680.000000	1.275326
4678.000000	1.275295
4676.000000	1.275366
4674.000000	1.275424
4672.000000	1.275443
4670.000000	1.275482
4668.000000	1.275509
4666.000000	1.275525
4664.000000	1.275504
4662.000000	1.275460
4660.000000	1.275442
4658.000000	1.275419
4656.000000	1.275348
4654.000000	1.275403
4652.000000	1.275542
4650.000000	1.275467
4648.000000	1.275325
4646.000000	1.275420
4644.000000	1.275545
4642.000000	1.275468
4640.000000	1.275366
4638.000000	1.275414
4636.000000	1.275458
4634.000000	1.275382
4632.000000	1.275340
4630.000000	1.275406
4628.000000	1.275382
4626.000000	1.275269
4624.000000	1.275170
4622.000000	1.275238
4620.000000	1.275382
4618.000000	1.275345
4616.000000	1.275223
4614.000000	1.275321
4612.000000	1.275376
4610.000000	1.275211
4608.000000	1.275040
4606.000000	1.275021
4604.000000	1.275088
4602.000000	1.275164
4600.000000	1.275173
4598.000000	1.275147
4596.000000	1.275102
4594.000000	1.275070
4592.000000	1.275094
4590.000000	1.275139
4588.000000	1.275241
4586.000000	1.275340
4584.000000	1.275361
4582.000000	1.275337
4580.000000	1.275321
4578.000000	1.275326
4576.000000	1.275334
4574.000000	1.275315
4572.000000	1.275235
4570.000000	1.275233
4568.000000	1.275307
4566.000000	1.275350
4564.000000	1.275255
4562.000000	1.275180
4560.000000	1.275141
4558.000000	1.275174
4556.000000	1.275276
4554.000000	1.275338
4552.000000	1.275306
4550.000000	1.275299
4548.000000	1.275209
4546.000000	1.275085
4544.000000	1.275073
4542.000000	1.275034
4540.000000	1.274932
4538.000000	1.274914
4536.000000	1.274943
4534.000000	1.275022
4532.000000	1.275167
4530.000000	1.275202
4528.000000	1.275096
4526.000000	1.275065
4524.000000	1.275071
4522.000000	1.275023
4520.000000	1.275017
4518.000000	1.275077
4516.000000	1.275053
4514.000000	1.275051
4512.000000	1.275091
4510.000000	1.275008
4508.000000	1.274791
4506.000000	1.274721
4504.000000	1.274814
4502.000000	1.274940
4500.000000	1.275042
4498.000000	1.275085
4496.000000	1.275011
4494.000000	1.274941
4492.000000	1.274934
4490.000000	1.274919
4488.000000	1.275003
4486.000000	1.275100
4484.000000	1.274935
4482.000000	1.274660
4480.000000	1.274677
4478.000000	1.274906
4476.000000	1.275046
4474.000000	1.275063
4472.000000	1.275006
4470.000000	1.274916
4468.000000	1.274852
4466.000000	1.274826
4464.000000	1.274803
4462.000000	1.274828
4460.000000	1.274821
4458.000000	1.274829
4456.000000	1.274939
4454.000000	1.274988
4452.000000	1.274846
4450.000000	1.274745
4448.000000	1.274814
4446.000000	1.274875
4444.000000	1.274817
4442.000000	1.274828
4440.000000	1.275017
4438.000000	1.275097
4436.000000	1.274895
4434.000000	1.274673
4432.000000	1.274623
4430.000000	1.274659
4428.000000	1.274699
4426.000000	1.274660
4424.000000	1.274533
4422.000000	1.274483
4420.000000	1.274554
4418.000000	1.274581
4416.000000	1.274590
4414.000000	1.274591
4412.000000	1.274531
4410.000000	1.274541
4408.000000	1.274608
4406.000000	1.274611
4404.000000	1.274544
4402.000000	1.274450
4400.000000	1.274349
4398.000000	1.274366
4396.000000	1.274478
4394.000000	1.274556
4392.000000	1.274597
4390.000000	1.274664
4388.000000	1.274604
4386.000000	1.274424
4384.000000	1.274369
4382.000000	1.274423
4380.000000	1.274416
4378.000000	1.274353
4376.000000	1.274313
4374.000000	1.274381
4372.000000	1.274457
4370.000000	1.274452
4368.000000	1.274503
4366.000000	1.274637
4364.000000	1.274545
4362.000000	1.274291
4360.000000	1.274235
4358.000000	1.274361
4356.000000	1.274347
4354.000000	1.274243
4352.000000	1.274237
4350.000000	1.274271
4348.000000	1.274257
4346.000000	1.274235
4344.000000	1.274171
4342.000000	1.274116
4340.000000	1.274148
4338.000000	1.274212
4336.000000	1.274243
4334.000000	1.274169
4332.000000	1.274009
4330.000000	1.273974
4328.000000	1.274085
4326.000000	1.274148
4324.000000	1.274100
4322.000000	1.273973
4320.000000	1.273838
4318.000000	1.273800
4316.000000	1.273875
4314.000000	1.273956
4312.000000	1.273966
4310.000000	1.273969
4308.000000	1.273980
4306.000000	1.273916
4304.000000	1.273843
4302.000000	1.273875
4300.000000	1.273924
4298.000000	1.273908
4296.000000	1.273862
4294.000000	1.273764
4292.000000	1.273615
4290.000000	1.273627
4288.000000	1.273811
4286.000000	1.273874
4284.000000	1.273753
4282.000000	1.273716
4280.000000	1.273732
4278.000000	1.273658
4276.000000	1.273594
4274.000000	1.273658
4272.000000	1.273709
4270.000000	1.273670
4268.000000	1.273579
4266.000000	1.273502
4264.000000	1.273494
4262.000000	1.273535
4260.000000	1.273507
4258.000000	1.273516
4256.000000	1.273529
4254.000000	1.273495
4252.000000	1.273481
4250.000000	1.273495
4248.000000	1.273454
4246.000000	1.273373
4244.000000	1.273349
4242.000000	1.273387
4240.000000	1.273355
4238.000000	1.273286
4236.000000	1.273177
4234.000000	1.273116
4232.000000	1.273169
4230.000000	1.273198
4228.000000	1.273129
4226.000000	1.273062
4224.000000	1.273100
4222.000000	1.273165
4220.000000	1.273044
4218.000000	1.272872
4216.000000	1.272864
4214.000000	1.272930
4212.000000	1.272955
4210.000000	1.272973
4208.000000	1.272900
4206.000000	1.272751
4204.000000	1.272649
4202.000000	1.272633
4200.000000	1.272684
4198.000000	1.272759
4196.000000	1.272739
4194.000000	1.272708
4192.000000	1.272726
4190.000000	1.272733
4188.000000	1.272739
4186.000000	1.272827
4184.000000	1.272842
4182.000000	1.272705
4180.000000	1.272599
4178.000000	1.272576
4176.000000	1.272507
4174.000000	1.272478
4172.000000	1.272480
4170.000000	1.272483
4168.000000	1.272561
4166.000000	1.272561
4164.000000	1.272365
4162.000000	1.272227
4160.000000	1.272254
4158.000000	1.272304
4156.000000	1.272274
4154.000000	1.272272
4152.000000	1.272263
4150.000000	1.272182
4148.000000	1.272084
4146.000000	1.272026
4144.000000	1.271997
4142.000000	1.271973
4140.000000	1.271928
4138.000000	1.271864
4136.000000	1.271733
4134.000000	1.271660
4132.000000	1.271699
4130.000000	1.271733
4128.000000	1.271672
4126.000000	1.271552
4124.000000	1.271451
4122.000000	1.271444
4120.000000	1.271500
4118.000000	1.271524
4116.000000	1.271481
4114.000000	1.271475
4112.000000	1.271443
4110.000000	1.271286
4108.000000	1.271166
4106.000000	1.271243
4104.000000	1.271362
4102.000000	1.271332
4100.000000	1.271209
4098.000000	1.271172
4096.000000	1.271211
4094.000000	1.271203
4092.000000	1.271146
4090.000000	1.271108
4088.000000	1.271058
4086.000000	1.271000
4084.000000	1.270973
4082.000000	1.270980
4080.000000	1.270986
4078.000000	1.270981
4076.000000	1.271004
4074.000000	1.271023
4072.000000	1.270945
4070.000000	1.270826
4068.000000	1.270751
4066.000000	1.270676
4064.000000	1.270558
4062.000000	1.270433
4060.000000	1.270372
4058.000000	1.270462
4056.000000	1.270558
4054.000000	1.270470
4052.000000	1.270373
4050.000000	1.270376
4048.000000	1.270233
4046.000000	1.270047
4044.000000	1.270084
4042.000000	1.270143
4040.000000	1.269967
4038.000000	1.269795
4036.000000	1.269811
4034.000000	1.269869
4032.000000	1.269894
4030.000000	1.269865
4028.000000	1.269736
4026.000000	1.269672
4024.000000	1.269664
4022.000000	1.269612
4020.000000	1.269618
4018.000000	1.269680
4016.000000	1.269630
4014.000000	1.269509
4012.000000	1.269429
4010.000000	1.269446
4008.000000	1.269518
4006.000000	1.269578
4004.000000	1.269534
4002.000000	1.269430
4000.000000	1.269419
3998.000000	1.269430
3996.000000	1.269299
3994.000000	1.269164
3992.000000	1.269116
3990.000000	1.269097
3988.000000	1.269047
3986.000000	1.268980
3984.000000	1.268918
3982.000000	1.268951
3980.000000	1.269014
3978.000000	1.268953
3976.000000	1.268832
3974.000000	1.268789
3972.000000	1.268806
3970.000000	1.268778
3968.000000	1.268681
3966.000000	1.268553
3964.000000	1.268383
3962.000000	1.268333
3960.000000	1.268383
3958.000000	1.268373
3956.000000	1.268314
3954.000000	1.268235
3952.000000	1.268034
3950.000000	1.267847
3948.000000	1.267888
3946.000000	1.267828
3944.000000	1.267592
3942.000000	1.267814
3940.000000	1.268199
3938.000000	1.268073
3936.000000	1.267464
3934.000000	1.266858
3932.000000	1.267027
3930.000000	1.267674
3928.000000	1.267601
3926.000000	1.267113
3924.000000	1.267081
3922.000000	1.266922
3920.000000	1.266294
3918.000000	1.266334
3916.000000	1.267335
3914.000000	1.267889
3912.000000	1.267530
3910.000000	1.266999
3908.000000	1.265775
3906.000000	1.263861
3904.000000	1.263385
3902.000000	1.264683
3900.000000	1.266278
3898.000000	1.267634
3896.000000	1.267446
3894.000000	1.265358
3892.000000	1.264534
3890.000000	1.265619
3888.000000	1.264823
3886.000000	1.264113
3884.000000	1.265713
3882.000000	1.265859
3880.000000	1.265828
3878.000000	1.266544
3876.000000	1.265485
3874.000000	1.263917
3872.000000	1.262408
3870.000000	1.262905
3868.000000	1.265017
3866.000000	1.264733
3864.000000	1.264522
3862.000000	1.265871
3860.000000	1.265933
3858.000000	1.262121
3856.000000	1.255163
3854.000000	1.255269
3852.000000	1.264639
3850.000000	1.269777
3848.000000	1.267602
3846.000000	1.264849
3844.000000	1.263647
3842.000000	1.262323
3840.000000	1.259891
3838.000000	1.260456
3836.000000	1.264316
3834.000000	1.265660
3832.000000	1.265170
3830.000000	1.265379
3828.000000	1.265035
3826.000000	1.264184
3824.000000	1.262100
3822.000000	1.260863
3820.000000	1.262359
3818.000000	1.261781
3816.000000	1.262281
3814.000000	1.266337
3812.000000	1.266568
3810.000000	1.262923
3808.000000	1.261069
3806.000000	1.262501
3804.000000	1.261576
3802.000000	1.260275
3800.000000	1.263859
3798.000000	1.265702
3796.000000	1.265011
3794.000000	1.265408
3792.000000	1.265314
3790.000000	1.264835
3788.000000	1.264503
3786.000000	1.264305
3784.000000	1.264354
3782.000000	1.263875
3780.000000	1.263560
3778.000000	1.264497
3776.000000	1.264936
3774.000000	1.263921
3772.000000	1.262423
3770.000000	1.262307
3768.000000	1.263360
3766.000000	1.263815
3764.000000	1.263800
3762.000000	1.262812
3760.000000	1.261977
3758.000000	1.262607
3756.000000	1.261341
3754.000000	1.256789
3752.000000	1.254801
3750.000000	1.258420
3748.000000	1.259656
3746.000000	1.255881
3744.000000	1.258709
3742.000000	1.265003
3740.000000	1.262873
3738.000000	1.258208
3736.000000	1.257962
3734.000000	1.259969
3732.000000	1.261983
3730.000000	1.263170
3728.000000	1.262089
3726.000000	1.261153
3724.000000	1.261435
3722.000000	1.261726
3720.000000	1.262182
3718.000000	1.262237
3716.000000	1.260727
3714.000000	1.257976
3712.000000	1.257980
3710.000000	1.261149
3708.000000	1.262971
3706.000000	1.262295
3704.000000	1.260775
3702.000000	1.260603
3700.000000	1.261764
3698.000000	1.262023
3696.000000	1.261370
3694.000000	1.259977
3692.000000	1.257267
3690.000000	1.255680
3688.000000	1.258957
3686.000000	1.262855
3684.000000	1.262116
3682.000000	1.260016
3680.000000	1.257980
3678.000000	1.254530
3676.000000	1.254291
3674.000000	1.257622
3672.000000	1.256991
3670.000000	1.257228
3668.000000	1.260956
3666.000000	1.261469
3664.000000	1.260025
3662.000000	1.259424
3660.000000	1.258330
3658.000000	1.256567
3656.000000	1.257026
3654.000000	1.257364
3652.000000	1.253915
3650.000000	1.252576
3648.000000	1.256636
3646.000000	1.259986
3644.000000	1.259657
3642.000000	1.258509
3640.000000	1.258134
3638.000000	1.257844
3636.000000	1.257303
3634.000000	1.256370
3632.000000	1.253553
3630.000000	1.251586
3628.000000	1.255498
3626.000000	1.259137
3624.000000	1.257672
3622.000000	1.254938
3620.000000	1.254141
3618.000000	1.255696
3616.000000	1.256223
3614.000000	1.255101
3612.000000	1.254473
3610.000000	1.254509
3608.000000	1.255750
3606.000000	1.256959
3604.000000	1.256447
3602.000000	1.255618
3600.000000	1.255481
3598.000000	1.255388
3596.000000	1.255217
3594.000000	1.255545
3592.000000	1.255209
3590.000000	1.253593
3588.000000	1.253469
3586.000000	1.255413
3584.000000	1.256305
3582.000000	1.255756
3580.000000	1.255351
3578.000000	1.255327
3576.000000	1.255291
3574.000000	1.255204
3572.000000	1.254717
3570.000000	1.253410
3568.000000	1.252936
3566.000000	1.254425
3564.000000	1.255546
3562.000000	1.255404
3560.000000	1.255237
3558.000000	1.255288
3556.000000	1.255120
3554.000000	1.254805
3552.000000	1.254849
3550.000000	1.254918
3548.000000	1.254603
3546.000000	1.254706
3544.000000	1.255320
3542.000000	1.255693
3540.000000	1.255678
3538.000000	1.255497
3536.000000	1.255528
3534.000000	1.255722
3532.000000	1.255618
3530.000000	1.255427
3528.000000	1.255479
3526.000000	1.255602
3524.000000	1.255729
3522.000000	1.256080
3520.000000	1.256395
3518.000000	1.256593
3516.000000	1.256776
3514.000000	1.256799
3512.000000	1.256707
3510.000000	1.256788
3508.000000	1.257081
3506.000000	1.257123
3504.000000	1.257071
3502.000000	1.257474
3500.000000	1.257936
3498.000000	1.258136
3496.000000	1.258359
3494.000000	1.258611
3492.000000	1.258808
3490.000000	1.258996
3488.000000	1.259285
3486.000000	1.259633
3484.000000	1.259823
3482.000000	1.260068
3480.000000	1.260486
3478.000000	1.260843
3476.000000	1.261153
3474.000000	1.261486
3472.000000	1.261769
3470.000000	1.262058
3468.000000	1.262488
3466.000000	1.262971
3464.000000	1.263405
3462.000000	1.263875
3460.000000	1.264340
3458.000000	1.264714
3456.000000	1.264994
3454.000000	1.265336
3452.000000	1.265804
3450.000000	1.266116
3448.000000	1.266411
3446.000000	1.267028
3444.000000	1.267619
3442.000000	1.268127
3440.000000	1.268673
3438.000000	1.269153
3436.000000	1.269634
3434.000000	1.270145
3432.000000	1.270649
3430.000000	1.271164
3428.000000	1.271656
3426.000000	1.272035
3424.000000	1.272304
3422.000000	1.272631
3420.000000	1.273141
3418.000000	1.273610
3416.000000	1.273847
3414.000000	1.274039
3412.000000	1.274367
3410.000000	1.274657
3408.000000	1.274912
3406.000000	1.275212
3404.000000	1.275436
3402.000000	1.275586
3400.000000	1.275805
3398.000000	1.276208
3396.000000	1.276582
3394.000000	1.276685
3392.000000	1.276801
3390.000000	1.277030
3388.000000	1.277226
3386.000000	1.277444
3384.000000	1.277593
3382.000000	1.277773
3380.000000	1.277959
3378.000000	1.278054
3376.000000	1.278205
3374.000000	1.278380
3372.000000	1.278384
3370.000000	1.278334
3368.000000	1.278475
3366.000000	1.278729
3364.000000	1.278921
3362.000000	1.279001
3360.000000	1.279100
3358.000000	1.279248
3356.000000	1.279384
3354.000000	1.279462
3352.000000	1.279437
3350.000000	1.279510
3348.000000	1.279710
3346.000000	1.279836
3344.000000	1.279918
3342.000000	1.279932
3340.000000	1.279881
3338.000000	1.279968
3336.000000	1.280167
3334.000000	1.280240
3332.000000	1.280211
3330.000000	1.280302
3328.000000	1.280496
3326.000000	1.280634
3324.000000	1.280665
3322.000000	1.280646
3320.000000	1.280657
3318.000000	1.280749
3316.000000	1.280864
3314.000000	1.280953
3312.000000	1.280996
3310.000000	1.280928
3308.000000	1.280905
3306.000000	1.281020
3304.000000	1.281214
3302.000000	1.281385
3300.000000	1.281432
3298.000000	1.281451
3296.000000	1.281475
3294.000000	1.281491
3292.000000	1.281596
3290.000000	1.281723
3288.000000	1.281763
3286.000000	1.281768
3284.000000	1.281805
3282.000000	1.281907
3280.000000	1.281997
3278.000000	1.281990
3276.000000	1.281968
3274.000000	1.282042
3272.000000	1.282137
3270.000000	1.282216
3268.000000	1.282333
3266.000000	1.282460
3264.000000	1.282459
3262.000000	1.282416
3260.000000	1.282435
3258.000000	1.282456
3256.000000	1.282500
3254.000000	1.282554
3252.000000	1.282589
3250.000000	1.282634
3248.000000	1.282705
3246.000000	1.282752
3244.000000	1.282814
3242.000000	1.282848
3240.000000	1.282900
3238.000000	1.282957
3236.000000	1.282928
3234.000000	1.282886
3232.000000	1.283003
3230.000000	1.283176
3228.000000	1.283237
3226.000000	1.283315
3224.000000	1.283442
3222.000000	1.283464
3220.000000	1.283429
3218.000000	1.283478
3216.000000	1.283536
3214.000000	1.283527
3212.000000	1.283578
3210.000000	1.283670
3208.000000	1.283749
3206.000000	1.283817
3204.000000	1.283841
3202.000000	1.283793
3200.000000	1.283740
3198.000000	1.283737
3196.000000	1.283734
3194.000000	1.283700
3192.000000	1.283669
3190.000000	1.283642
3188.000000	1.283633
3186.000000	1.283674
3184.000000	1.283721
3182.000000	1.283734
3180.000000	1.283749
3178.000000	1.283803
3176.000000	1.283845
3174.000000	1.283805
3172.000000	1.283804
3170.000000	1.283850
3168.000000	1.283876
3166.000000	1.283856
3164.000000	1.283800
3162.000000	1.283851
3160.000000	1.283880
3158.000000	1.283879
3156.000000	1.283935
3154.000000	1.283882
3152.000000	1.283849
3150.000000	1.283962
3148.000000	1.284146
3146.000000	1.284227
3144.000000	1.284167
3142.000000	1.284176
3140.000000	1.284236
3138.000000	1.284297
3136.000000	1.284326
3134.000000	1.284380
3132.000000	1.284461
3130.000000	1.284419
3128.000000	1.284401
3126.000000	1.284450
3124.000000	1.284443
3122.000000	1.284367
3120.000000	1.284266
3118.000000	1.284287
3116.000000	1.284420
3114.000000	1.284529
3112.000000	1.284603
3110.000000	1.284549
3108.000000	1.284479
3106.000000	1.284502
3104.000000	1.284474
3102.000000	1.284371
3100.000000	1.284272
3098.000000	1.284257
3096.000000	1.284318
3094.000000	1.284288
3092.000000	1.284174
3090.000000	1.284081
3088.000000	1.284020
3086.000000	1.283984
3084.000000	1.283956
3082.000000	1.283861
3080.000000	1.283686
3078.000000	1.283582
3076.000000	1.283549
3074.000000	1.283482
3072.000000	1.283396
3070.000000	1.283266
3068.000000	1.283101
3066.000000	1.282993
3064.000000	1.282999
3062.000000	1.283032
3060.000000	1.282987
3058.000000	1.282822
3056.000000	1.282745
3054.000000	1.282756
3052.000000	1.282696
3050.000000	1.282594
3048.000000	1.282524
3046.000000	1.282460
3044.000000	1.282327
3042.000000	1.282227
3040.000000	1.282210
3038.000000	1.282141
3036.000000	1.282021
3034.000000	1.281851
3032.000000	1.281763
3030.000000	1.281728
3028.000000	1.281586
3026.000000	1.281410
3024.000000	1.281290
3022.000000	1.281273
3020.000000	1.281433
3018.000000	1.281737
3016.000000	1.282030
3014.000000	1.282189
3012.000000	1.282220
3010.000000	1.282077
3008.000000	1.281830
3006.000000	1.281609
3004.000000	1.281466
3002.000000	1.281336
3000.000000	1.281176
2998.000000	1.281003
2996.000000	1.280944
2994.000000	1.280896
2992.000000	1.280826
2990.000000	1.280772
2988.000000	1.280704
2986.000000	1.280607
2984.000000	1.280469
2982.000000	1.280397
2980.000000	1.280341
2978.000000	1.280301
2976.000000	1.280250
2974.000000	1.280124
2972.000000	1.280042
2970.000000	1.280094
2968.000000	1.280383
2966.000000	1.280927
2964.000000	1.281692
2962.000000	1.282408
2960.000000	1.282788
2958.000000	1.282700
2956.000000	1.282290
2954.000000	1.281745
2952.000000	1.281224
2950.000000	1.280720
2948.000000	1.280153
2946.000000	1.279623
2944.000000	1.279203
2942.000000	1.278809
2940.000000	1.278527
2938.000000	1.278432
2936.000000	1.278543
2934.000000	1.278702
2932.000000	1.278675
2930.000000	1.278620
2928.000000	1.278853
2926.000000	1.279478
2924.000000	1.280392
2922.000000	1.281333
2920.000000	1.281950
2918.000000	1.282180
2916.000000	1.282166
2914.000000	1.281903
2912.000000	1.281448
2910.000000	1.281007
2908.000000	1.280656
2906.000000	1.280393
2904.000000	1.280207
2902.000000	1.280076
2900.000000	1.279940
2898.000000	1.279740
2896.000000	1.279652
2894.000000	1.279614
2892.000000	1.279488
2890.000000	1.279345
2888.000000	1.279226
2886.000000	1.279118
2884.000000	1.278962
2882.000000	1.278748
2880.000000	1.278587
2878.000000	1.278419
2876.000000	1.278143
2874.000000	1.277816
2872.000000	1.277526
2870.000000	1.277177
2868.000000	1.276710
2866.000000	1.276386
2864.000000	1.276524
2862.000000	1.277171
2860.000000	1.277985
2858.000000	1.278585
2856.000000	1.278886
2854.000000	1.278991
2852.000000	1.279106
2850.000000	1.279352
2848.000000	1.279610
2846.000000	1.279560
2844.000000	1.279215
2842.000000	1.278869
2840.000000	1.278640
2838.000000	1.278468
2836.000000	1.278325
2834.000000	1.278202
2832.000000	1.278128
2830.000000	1.278035
2828.000000	1.277929
2826.000000	1.277927
2824.000000	1.277937
2822.000000	1.277843
2820.000000	1.277731
2818.000000	1.277606
2816.000000	1.277511
2814.000000	1.277483
2812.000000	1.277461
2810.000000	1.277433
2808.000000	1.277422
2806.000000	1.277423
2804.000000	1.277388
2802.000000	1.277277
2800.000000	1.277235
2798.000000	1.277205
2796.000000	1.277127
2794.000000	1.277087
2792.000000	1.277067
2790.000000	1.277051
2788.000000	1.277059
2786.000000	1.277110
2784.000000	1.277139
2782.000000	1.277104
2780.000000	1.277017
2778.000000	1.276934
2776.000000	1.276910
2774.000000	1.276881
2772.000000	1.276871
2770.000000	1.276858
2768.000000	1.276833
2766.000000	1.276807
2764.000000	1.276724
2762.000000	1.276695
2760.000000	1.276785
2758.000000	1.276842
2756.000000	1.276829
2754.000000	1.276831
2752.000000	1.276831
2750.000000	1.276733
2748.000000	1.276706
2746.000000	1.276744
2744.000000	1.276773
2742.000000	1.276777
2740.000000	1.276733
2738.000000	1.276712
2736.000000	1.276816
2734.000000	1.276873
2732.000000	1.276880
2730.000000	1.276903
2728.000000	1.276942
2726.000000	1.276952
2724.000000	1.276929
2722.000000	1.276941
2720.000000	1.276969
2718.000000	1.276972
2716.000000	1.277078
2714.000000	1.277232
2712.000000	1.277321
2710.000000	1.277275
2708.000000	1.277258
2706.000000	1.277380
2704.000000	1.277547
2702.000000	1.277686
2700.000000	1.277764
2698.000000	1.277783
2696.000000	1.277861
2694.000000	1.277976
2692.000000	1.278051
2690.000000	1.278098
2688.000000	1.278146
2686.000000	1.278194
2684.000000	1.278266
2682.000000	1.278324
2680.000000	1.278428
2678.000000	1.278543
2676.000000	1.278638
2674.000000	1.278703
2672.000000	1.278753
2670.000000	1.278789
2668.000000	1.278834
2666.000000	1.278950
2664.000000	1.279060
2662.000000	1.279076
2660.000000	1.279146
2658.000000	1.279288
2656.000000	1.279371
2654.000000	1.279435
2652.000000	1.279544
2650.000000	1.279635
2648.000000	1.279648
2646.000000	1.279631
2644.000000	1.279679
2642.000000	1.279765
2640.000000	1.279855
2638.000000	1.279859
2636.000000	1.279850
2634.000000	1.279870
2632.000000	1.279922
2630.000000	1.279985
2628.000000	1.280035
2626.000000	1.280085
2624.000000	1.280104
2622.000000	1.280060
2620.000000	1.280152
2618.000000	1.280252
2616.000000	1.280220
2614.000000	1.280251
2612.000000	1.280339
2610.000000	1.280376
2608.000000	1.280443
2606.000000	1.280488
2604.000000	1.280497
2602.000000	1.280489
2600.000000	1.280481
2598.000000	1.280549
2596.000000	1.280627
2594.000000	1.280665
2592.000000	1.280714
2590.000000	1.280731
2588.000000	1.280769
2586.000000	1.280852
2584.000000	1.280900
2582.000000	1.280872
2580.000000	1.280922
2578.000000	1.281001
2576.000000	1.281029
2574.000000	1.281047
2572.000000	1.281028
2570.000000	1.281050
2568.000000	1.281104
2566.000000	1.281084
2564.000000	1.281097
2562.000000	1.281101
2560.000000	1.281050
2558.000000	1.281019
2556.000000	1.281038
2554.000000	1.281027
2552.000000	1.281083
2550.000000	1.281100
2548.000000	1.281098
2546.000000	1.281123
2544.000000	1.281135
2542.000000	1.281086
2540.000000	1.281052
2538.000000	1.281064
2536.000000	1.281069
2534.000000	1.281062
2532.000000	1.281073
2530.000000	1.281103
2528.000000	1.281082
2526.000000	1.281038
2524.000000	1.281045
2522.000000	1.280984
2520.000000	1.280944
2518.000000	1.280966
2516.000000	1.280978
2514.000000	1.280941
2512.000000	1.280969
2510.000000	1.280994
2508.000000	1.281007
2506.000000	1.280981
2504.000000	1.280900
2502.000000	1.280890
2500.000000	1.280942
2498.000000	1.280895
2496.000000	1.280822
2494.000000	1.280824
2492.000000	1.280865
2490.000000	1.280829
2488.000000	1.280842
2486.000000	1.280899
2484.000000	1.280862
2482.000000	1.280793
2480.000000	1.280739
2478.000000	1.280659
2476.000000	1.280684
2474.000000	1.280776
2472.000000	1.280845
2470.000000	1.280847
2468.000000	1.280785
2466.000000	1.280721
2464.000000	1.280720
2462.000000	1.280753
2460.000000	1.280821
2458.000000	1.280823
2456.000000	1.280807
2454.000000	1.280800
2452.000000	1.280810
2450.000000	1.280795
2448.000000	1.280767
2446.000000	1.280770
2444.000000	1.280789
2442.000000	1.280741
2440.000000	1.280738
2438.000000	1.280760
2436.000000	1.280723
2434.000000	1.280635
2432.000000	1.280577
2430.000000	1.280580
2428.000000	1.280681
2426.000000	1.280699
2424.000000	1.280664
2422.000000	1.280642
2420.000000	1.280637
2418.000000	1.280618
2416.000000	1.280594
2414.000000	1.280583
2412.000000	1.280606
2410.000000	1.280584
2408.000000	1.280555
2406.000000	1.280521
2404.000000	1.280476
2402.000000	1.280473
2400.000000	1.280548
2398.000000	1.280590
2396.000000	1.280528
2394.000000	1.280455
2392.000000	1.280423
2390.000000	1.280405
2388.000000	1.280435
2386.000000	1.280395
2384.000000	1.280326
2382.000000	1.280198
2380.000000	1.279975
2378.000000	1.279698
2376.000000	1.279500
2374.000000	1.279272
2372.000000	1.279015
2370.000000	1.278856
2368.000000	1.278824
2366.000000	1.278803
2364.000000	1.278847
2362.000000	1.278965
2360.000000	1.279232
2358.000000	1.279610
2356.000000	1.279980
2354.000000	1.280289
2352.000000	1.280547
2350.000000	1.280334
2348.000000	1.279566
2346.000000	1.279206
2344.000000	1.279622
2342.000000	1.280443
2340.000000	1.281292
2338.000000	1.281548
2336.000000	1.281081
2334.000000	1.280465
2332.000000	1.280140
2330.000000	1.279992
2328.000000	1.279938
2326.000000	1.279952
2324.000000	1.280060
2322.000000	1.280116
2320.000000	1.280189
2318.000000	1.280282
2316.000000	1.280326
2314.000000	1.280324
2312.000000	1.280297
2310.000000	1.280197
2308.000000	1.280161
2306.000000	1.280238
2304.000000	1.280308
2302.000000	1.280247
2300.000000	1.280217
2298.000000	1.280273
2296.000000	1.280334
2294.000000	1.280374
2292.000000	1.280399
2290.000000	1.280384
2288.000000	1.280389
2286.000000	1.280343
2284.000000	1.280301
2282.000000	1.280290
2280.000000	1.280323
2278.000000	1.280362
2276.000000	1.280408
2274.000000	1.280375
2272.000000	1.280312
2270.000000	1.280301
2268.000000	1.280315
2266.000000	1.280286
2264.000000	1.280240
2262.000000	1.280208
2260.000000	1.280194
2258.000000	1.280148
2256.000000	1.280099
2254.000000	1.280010
2252.000000	1.279995
2250.000000	1.279949
2248.000000	1.279820
2246.000000	1.279712
2244.000000	1.279677
2242.000000	1.279637
2240.000000	1.279539
2238.000000	1.279451
2236.000000	1.279429
2234.000000	1.279345
2232.000000	1.279218
2230.000000	1.279119
2228.000000	1.279106
2226.000000	1.279149
2224.000000	1.279200
2222.000000	1.279114
2220.000000	1.279008
2218.000000	1.278957
2216.000000	1.278908
2214.000000	1.278770
2212.000000	1.278683
2210.000000	1.278651
2208.000000	1.278593
2206.000000	1.278546
2204.000000	1.278578
2202.000000	1.278543
2200.000000	1.278404
2198.000000	1.278312
2196.000000	1.278259
2194.000000	1.278271
2192.000000	1.278285
2190.000000	1.278139
2188.000000	1.278024
2186.000000	1.277995
2184.000000	1.277969
2182.000000	1.277830
2180.000000	1.277678
2178.000000	1.277587
2176.000000	1.277599
2174.000000	1.277598
2172.000000	1.277571
2170.000000	1.277445
2168.000000	1.277396
2166.000000	1.277398
2164.000000	1.277321
2162.000000	1.277178
2160.000000	1.277088
2158.000000	1.277076
2156.000000	1.277091
2154.000000	1.277057
2152.000000	1.276982
2150.000000	1.276817
2148.000000	1.276702
2146.000000	1.276652
2144.000000	1.276654
2142.000000	1.276605
2140.000000	1.276538
2138.000000	1.276446
2136.000000	1.276406
2134.000000	1.276402
2132.000000	1.276365
2130.000000	1.276238
2128.000000	1.276198
2126.000000	1.276184
2124.000000	1.276174
2122.000000	1.276174
2120.000000	1.276103
2118.000000	1.275981
2116.000000	1.275937
2114.000000	1.275906
2112.000000	1.275866
2110.000000	1.275809
2108.000000	1.275813
2106.000000	1.275808
2104.000000	1.275755
2102.000000	1.275705
2100.000000	1.275671
2098.000000	1.275601
2096.000000	1.275566
2094.000000	1.275533
2092.000000	1.275508
2090.000000	1.275490
2088.000000	1.275528
2086.000000	1.275458
2084.000000	1.275419
2082.000000	1.275329
2080.000000	1.275186
2078.000000	1.275123
2076.000000	1.275151
2074.000000	1.275175
2072.000000	1.275166
2070.000000	1.275034
2068.000000	1.274955
2066.000000	1.274930
2064.000000	1.275017
2062.000000	1.275007
2060.000000	1.274934
2058.000000	1.274868
2056.000000	1.274865
2054.000000	1.274849
2052.000000	1.274828
2050.000000	1.274748
2048.000000	1.274682
2046.000000	1.274654
2044.000000	1.274588
2042.000000	1.274488
2040.000000	1.274453
2038.000000	1.274433
2036.000000	1.274471
2034.000000	1.274376
2032.000000	1.274261
2030.000000	1.274270
2028.000000	1.274385
2026.000000	1.274361
2024.000000	1.274268
2022.000000	1.274137
2020.000000	1.274028
2018.000000	1.273960
2016.000000	1.274107
2014.000000	1.274134
2012.000000	1.274031
2010.000000	1.273960
2008.000000	1.273946
2006.000000	1.273937
2004.000000	1.273945
2002.000000	1.273913
2000.000000	1.273893
1998.000000	1.273845
1996.000000	1.273785
1994.000000	1.273512
1992.000000	1.273473
1990.000000	1.273644
1988.000000	1.273621
1986.000000	1.273651
1984.000000	1.273673
1982.000000	1.273621
1980.000000	1.273587
1978.000000	1.273537
1976.000000	1.273544
1974.000000	1.273541
1972.000000	1.273522
1970.000000	1.273430
1968.000000	1.273298
1966.000000	1.273408
1964.000000	1.273440
1962.000000	1.273293
1960.000000	1.273252
1958.000000	1.273517
1956.000000	1.273593
1954.000000	1.273452
1952.000000	1.273462
1950.000000	1.273465
1948.000000	1.273446
1946.000000	1.273282
1944.000000	1.272993
1942.000000	1.273182
1940.000000	1.273580
1938.000000	1.273541
1936.000000	1.273564
1934.000000	1.273523
1932.000000	1.273532
1930.000000	1.273543
1928.000000	1.273592
1926.000000	1.273440
1924.000000	1.273218
1922.000000	1.273329
1920.000000	1.272966
1918.000000	1.272915
1916.000000	1.273782
1914.000000	1.273782
1912.000000	1.273577
1910.000000	1.273530
1908.000000	1.273742
1906.000000	1.273793
1904.000000	1.273784
1902.000000	1.273729
1900.000000	1.273862
1898.000000	1.273795
1896.000000	1.273742
1894.000000	1.273831
1892.000000	1.273563
1890.000000	1.273291
1888.000000	1.273873
1886.000000	1.273956
1884.000000	1.273910
1882.000000	1.273928
1880.000000	1.273978
1878.000000	1.273915
1876.000000	1.273945
1874.000000	1.273872
1872.000000	1.273213
1870.000000	1.272286
1868.000000	1.273106
1866.000000	1.273933
1864.000000	1.274000
1862.000000	1.273860
1860.000000	1.273883
1858.000000	1.273817
1856.000000	1.273896
1854.000000	1.273917
1852.000000	1.273945
1850.000000	1.273734
1848.000000	1.273229
1846.000000	1.271579
1844.000000	1.272016
1842.000000	1.274199
1840.000000	1.274250
1838.000000	1.273887
1836.000000	1.273965
1834.000000	1.273758
1832.000000	1.272693
1830.000000	1.272510
1828.000000	1.273398
1826.000000	1.273090
1824.000000	1.273730
1822.000000	1.274273
1820.000000	1.274172
1818.000000	1.274094
1816.000000	1.274295
1814.000000	1.274031
1812.000000	1.273625
1810.000000	1.273823
1808.000000	1.274267
1806.000000	1.274204
1804.000000	1.273785
1802.000000	1.273163
1800.000000	1.273511
1798.000000	1.273946
1796.000000	1.273358
1794.000000	1.271519
1792.000000	1.272216
1790.000000	1.274237
1788.000000	1.274152
1786.000000	1.273390
1784.000000	1.273733
1782.000000	1.273731
1780.000000	1.273910
1778.000000	1.274146
1776.000000	1.272979
1774.000000	1.270474
1772.000000	1.271424
1770.000000	1.273431
1768.000000	1.273766
1766.000000	1.274729
1764.000000	1.273513
1762.000000	1.273057
1760.000000	1.274146
1758.000000	1.273690
1756.000000	1.274116
1754.000000	1.273380
1752.000000	1.271398
1750.000000	1.272737
1748.000000	1.274081
1746.000000	1.274282
1744.000000	1.274011
1742.000000	1.273244
1740.000000	1.273203
1738.000000	1.273823
1736.000000	1.269630
1734.000000	1.269647
1732.000000	1.275056
1730.000000	1.275742
1728.000000	1.275744
1726.000000	1.275607
1724.000000	1.275473
1722.000000	1.274870
1720.000000	1.271400
1718.000000	1.269386
1716.000000	1.273455
1714.000000	1.275780
1712.000000	1.276202
1710.000000	1.275559
1708.000000	1.274677
1706.000000	1.274035
1704.000000	1.273926
1702.000000	1.269104
1700.000000	1.269794
1698.000000	1.271679
1696.000000	1.271420
1694.000000	1.276784
1692.000000	1.277142
1690.000000	1.275945
1688.000000	1.274004
1686.000000	1.268836
1684.000000	1.271412
1682.000000	1.277137
1680.000000	1.277019
1678.000000	1.275354
1676.000000	1.273555
1674.000000	1.275593
1672.000000	1.275059
1670.000000	1.274098
1668.000000	1.276631
1666.000000	1.277226
1664.000000	1.275479
1662.000000	1.276458
1660.000000	1.277741
1658.000000	1.276829
1656.000000	1.271166
1654.000000	1.265186
1652.000000	1.273044
1650.000000	1.277752
1648.000000	1.273637
1646.000000	1.274857
1644.000000	1.278433
1642.000000	1.278461
1640.000000	1.277306
1638.000000	1.274168
1636.000000	1.272979
1634.000000	1.277611
1632.000000	1.278991
1630.000000	1.277600
1628.000000	1.277254
1626.000000	1.276851
1624.000000	1.276094
1622.000000	1.277565
1620.000000	1.276758
1618.000000	1.273265
1616.000000	1.275578
1614.000000	1.278740
1612.000000	1.277985
1610.000000	1.278114
1608.000000	1.278835
1606.000000	1.279592
1604.000000	1.279738
1602.000000	1.279904
1600.000000	1.279894
1598.000000	1.279879
1596.000000	1.279748
1594.000000	1.279849
1592.000000	1.279802
1590.000000	1.279671
1588.000000	1.279593
1586.000000	1.279684
1584.000000	1.279721
1582.000000	1.279761
1580.000000	1.278713
1578.000000	1.274817
1576.000000	1.275396
1574.000000	1.279916
1572.000000	1.278190
1570.000000	1.276977
1568.000000	1.278787
1566.000000	1.279068
1564.000000	1.278077
1562.000000	1.272907
1560.000000	1.267629
1558.000000	1.273607
1556.000000	1.277893
1554.000000	1.278305
1552.000000	1.279326
1550.000000	1.279309
1548.000000	1.279076
1546.000000	1.277298
1544.000000	1.275089
1542.000000	1.271522
1540.000000	1.271748
1538.000000	1.278265
1536.000000	1.279014
1534.000000	1.277134
1532.000000	1.278960
1530.000000	1.278961
1528.000000	1.277459
1526.000000	1.276762
1524.000000	1.275156
1522.000000	1.273183
1520.000000	1.276135
1518.000000	1.277119
1516.000000	1.277575
1514.000000	1.278215
1512.000000	1.277737
1510.000000	1.275315
1508.000000	1.270451
1506.000000	1.272851
1504.000000	1.278267
1502.000000	1.276984
1500.000000	1.273479
1498.000000	1.271141
1496.000000	1.274118
1494.000000	1.279605
1492.000000	1.280608
1490.000000	1.280538
1488.000000	1.281224
1486.000000	1.281404
1484.000000	1.280963
1482.000000	1.280060
1480.000000	1.279648
1478.000000	1.278405
1476.000000	1.276746
1474.000000	1.274935
1472.000000	1.276743
1470.000000	1.279365
1468.000000	1.278521
1466.000000	1.276937
1464.000000	1.277944
1462.000000	1.278296
1460.000000	1.274591
1458.000000	1.270582
1456.000000	1.274062
1454.000000	1.277925
1452.000000	1.278305
1450.000000	1.279303
1448.000000	1.279995
1446.000000	1.280208
1444.000000	1.279427
1442.000000	1.279032
1440.000000	1.277827
1438.000000	1.275388
1436.000000	1.276755
1434.000000	1.278935
1432.000000	1.278096
1430.000000	1.278051
1428.000000	1.278516
1426.000000	1.278214
1424.000000	1.277842
1422.000000	1.276610
1420.000000	1.274688
1418.000000	1.276989
1416.000000	1.278525
1414.000000	1.278367
1412.000000	1.277976
1410.000000	1.277742
1408.000000	1.277178
1406.000000	1.276868
1404.000000	1.277799
1402.000000	1.278545
1400.000000	1.278089
1398.000000	1.278285
1396.000000	1.277539
1394.000000	1.277843
1392.000000	1.278566
1390.000000	1.277563
1388.000000	1.276603
1386.000000	1.277545
1384.000000	1.278366
1382.000000	1.278494
1380.000000	1.278165
1378.000000	1.277911
1376.000000	1.277397
1374.000000	1.277378
1372.000000	1.277822
1370.000000	1.277693
1368.000000	1.277619
1366.000000	1.277460
1364.000000	1.276747
1362.000000	1.276871
1360.000000	1.277354
1358.000000	1.277395
1356.000000	1.277287
1354.000000	1.277376
1352.000000	1.277375
1350.000000	1.277321
1348.000000	1.277227
1346.000000	1.277142
1344.000000	1.277036
1342.000000	1.276730
1340.000000	1.276476
1338.000000	1.276793
1336.000000	1.277056
1334.000000	1.277085
1332.000000	1.276920
1330.000000	1.276808
1328.000000	1.276775
1326.000000	1.276716
1324.000000	1.276575
1322.000000	1.276558
1320.000000	1.276323
1318.000000	1.276198
1316.000000	1.276245
1314.000000	1.276313
1312.000000	1.276304
1310.000000	1.276180
1308.000000	1.276059
1306.000000	1.276080
1304.000000	1.276096
1302.000000	1.276067
1300.000000	1.275943
1298.000000	1.275812
1296.000000	1.275699
1294.000000	1.275724
1292.000000	1.275729
1290.000000	1.275660
1288.000000	1.275626
1286.000000	1.275747
1284.000000	1.275781
1282.000000	1.275771
1280.000000	1.275797
1278.000000	1.275883
1276.000000	1.275902
1274.000000	1.275899
1272.000000	1.276003
1270.000000	1.276412
1268.000000	1.276902
1266.000000	1.278044
1264.000000	1.280154
1262.000000	1.282911
1260.000000	1.285232
1258.000000	1.285981
1256.000000	1.284919
1254.000000	1.283045
1252.000000	1.281312
1250.000000	1.280170
1248.000000	1.279644
1246.000000	1.279577
1244.000000	1.279600
1242.000000	1.279770
1240.000000	1.279982
1238.000000	1.280206
1236.000000	1.280377
1234.000000	1.280686
1232.000000	1.281012
1230.000000	1.281408
1228.000000	1.281700
1226.000000	1.281927
1224.000000	1.282084
1222.000000	1.282272
1220.000000	1.282432
1218.000000	1.282625
1216.000000	1.282885
1214.000000	1.283270
1212.000000	1.283535
1210.000000	1.283846
1208.000000	1.284138
1206.000000	1.284397
1204.000000	1.284690
1202.000000	1.285026
1200.000000	1.285211
1198.000000	1.285478
1196.000000	1.285728
1194.000000	1.286087
1192.000000	1.286465
1190.000000	1.286901
1188.000000	1.287279
1186.000000	1.287544
1184.000000	1.287419
1182.000000	1.287625
1180.000000	1.288788
1178.000000	1.289832
1176.000000	1.289927
1174.000000	1.289981
1172.000000	1.290308
1170.000000	1.290792
1168.000000	1.291272
1166.000000	1.291604
1164.000000	1.291730
1162.000000	1.291944
1160.000000	1.292403
1158.000000	1.293055
1156.000000	1.293388
1154.000000	1.293547
1152.000000	1.293862
1150.000000	1.294415
1148.000000	1.294681
1146.000000	1.295014
1144.000000	1.295367
1142.000000	1.295867
1140.000000	1.296186
1138.000000	1.296289
1136.000000	1.296276
1134.000000	1.296444
1132.000000	1.296674
1130.000000	1.296963
1128.000000	1.297264
1126.000000	1.297543
1124.000000	1.297673
1122.000000	1.297608
1120.000000	1.298004
1118.000000	1.298796
1116.000000	1.299185
1114.000000	1.299454
1112.000000	1.299819
1110.000000	1.300140
1108.000000	1.300410
1106.000000	1.301259
1104.000000	1.301894
1102.000000	1.302236
1100.000000	1.302540
1098.000000	1.302787
1096.000000	1.303083
1094.000000	1.303391
1092.000000	1.303697
1090.000000	1.303944
1088.000000	1.303909
1086.000000	1.303751
1084.000000	1.303452
1082.000000	1.303223
1080.000000	1.302746
1078.000000	1.302589
1076.000000	1.302604
1074.000000	1.302590
1072.000000	1.302420
1070.000000	1.301883
1068.000000	1.301023
1066.000000	1.300738
1064.000000	1.300342
1062.000000	1.299945
1060.000000	1.299842
1058.000000	1.299052
1056.000000	1.297609
1054.000000	1.296474
1052.000000	1.296066
1050.000000	1.297402
1048.000000	1.298722
1046.000000	1.298367
1044.000000	1.296911
1042.000000	1.295706
1040.000000	1.294973
1038.000000	1.294589
1036.000000	1.294233
1034.000000	1.293695
1032.000000	1.293100
1030.000000	1.292259
1028.000000	1.291898
1026.000000	1.292206
1024.000000	1.291863
1022.000000	1.291377
1020.000000	1.291288
1018.000000	1.291236
1016.000000	1.289976
1014.000000	1.288526
1012.000000	1.287512
1010.000000	1.285984
1008.000000	1.283501
1006.000000	1.280985
1004.000000	1.278915
1002.000000	1.277739
1000.000000	1.277018
