PE IR       SUBTECH     SPECTRUM    ASCII       PEDS        4.00        
   -1
TE108B1_001.ASC
20/02/21
14:06:29.00
20/02/21
14:06:29.00
Administrator
Sample 001 By Administrator Date Friday, February 21 2020
1500.000000
#HDR
-1
-1
#GR
cm-1
EGY
1.0
0.0
4000.000000
-1.000000
2501
8
9.707783
6.970294
#DATA
4000.000000	6.970294
3999.000000	6.973298
3998.000000	6.975897
3997.000000	6.978267
3996.000000	6.980674
3995.000000	6.983369
3994.000000	6.986537
3993.000000	6.990287
3992.000000	6.994616
3991.000000	6.999368
3990.000000	7.004244
3989.000000	7.008883
3988.000000	7.012970
3987.000000	7.016354
3986.000000	7.019134
3985.000000	7.021648
3984.000000	7.024318
3983.000000	7.027450
3982.000000	7.031103
3981.000000	7.035078
3980.000000	7.039044
3979.000000	7.042764
3978.000000	7.046289
3977.000000	7.049903
3976.000000	7.053800
3975.000000	7.057863
3974.000000	7.061800
3973.000000	7.065499
3972.000000	7.069143
3971.000000	7.073029
3970.000000	7.077319
3969.000000	7.081971
3968.000000	7.086784
3967.000000	7.091454
3966.000000	7.095688
3965.000000	7.099387
3964.000000	7.102783
3963.000000	7.106378
3962.000000	7.110669
3961.000000	7.115855
3960.000000	7.121684
3959.000000	7.127571
3958.000000	7.132902
3957.000000	7.137322
3956.000000	7.140864
3955.000000	7.143892
3954.000000	7.146942
3953.000000	7.150492
3952.000000	7.154775
3951.000000	7.159730
3950.000000	7.165091
3949.000000	7.170445
3948.000000	7.175279
3947.000000	7.179211
3946.000000	7.182384
3945.000000	7.185587
3944.000000	7.189791
3943.000000	7.195483
3942.000000	7.202389
3941.000000	7.209763
3940.000000	7.216805
3939.000000	7.222889
3938.000000	7.227669
3937.000000	7.231169
3936.000000	7.233786
3935.000000	7.236178
3934.000000	7.239122
3933.000000	7.243364
3932.000000	7.249305
3931.000000	7.256638
3930.000000	7.264333
3929.000000	7.271211
3928.000000	7.276712
3927.000000	7.281157
3926.000000	7.285326
3925.000000	7.289771
3924.000000	7.294508
3923.000000	7.299204
3922.000000	7.303559
3921.000000	7.307535
3920.000000	7.311409
3919.000000	7.315739
3918.000000	7.321167
3917.000000	7.328031
3916.000000	7.336058
3915.000000	7.344525
3914.000000	7.352815
3913.000000	7.360748
3912.000000	7.368300
3911.000000	7.375055
3910.000000	7.380080
3909.000000	7.382416
3908.000000	7.381757
3907.000000	7.378810
3906.000000	7.375091
3905.000000	7.372323
3904.000000	7.371848
3903.000000	7.374413
3902.000000	7.380321
3901.000000	7.389518
3900.000000	7.401440
3899.000000	7.414843
3898.000000	7.427925
3897.000000	7.438734
3896.000000	7.445717
3895.000000	7.448479
3894.000000	7.448406
3893.000000	7.448299
3892.000000	7.450607
3891.000000	7.455476
3890.000000	7.460621
3889.000000	7.463541
3888.000000	7.464124
3887.000000	7.464948
3886.000000	7.468876
3885.000000	7.476359
3884.000000	7.485246
3883.000000	7.493196
3882.000000	7.499961
3881.000000	7.507062
3880.000000	7.515472
3879.000000	7.524250
3878.000000	7.531568
3877.000000	7.536511
3876.000000	7.539215
3875.000000	7.539609
3874.000000	7.537087
3873.000000	7.532053
3872.000000	7.527264
3871.000000	7.526566
3870.000000	7.531804
3869.000000	7.541072
3868.000000	7.550437
3867.000000	7.557392
3866.000000	7.562617
3865.000000	7.568535
3864.000000	7.576723
3863.000000	7.586875
3862.000000	7.597659
3861.000000	7.607349
3860.000000	7.613155
3859.000000	7.610814
3858.000000	7.596685
3857.000000	7.571581
3856.000000	7.542836
3855.000000	7.521805
3854.000000	7.518005
3853.000000	7.533973
3852.000000	7.564422
3851.000000	7.599828
3850.000000	7.631527
3849.000000	7.654853
3848.000000	7.669157
3847.000000	7.676198
3846.000000	7.678578
3845.000000	7.678620
3844.000000	7.677317
3843.000000	7.673903
3842.000000	7.666991
3841.000000	7.656869
3840.000000	7.646811
3839.000000	7.641675
3838.000000	7.644790
3837.000000	7.655730
3836.000000	7.670924
3835.000000	7.686302
3834.000000	7.699684
3833.000000	7.711028
3832.000000	7.720945
3831.000000	7.729441
3830.000000	7.736199
3829.000000	7.741570
3828.000000	7.746420
3827.000000	7.750596
3826.000000	7.752081
3825.000000	7.748663
3824.000000	7.740921
3823.000000	7.732983
3822.000000	7.729427
3821.000000	7.731021
3820.000000	7.734111
3819.000000	7.734789
3818.000000	7.733538
3817.000000	7.735224
3816.000000	7.744346
3815.000000	7.760768
3814.000000	7.779908
3813.000000	7.796185
3812.000000	7.805794
3811.000000	7.807502
3810.000000	7.802840
3809.000000	7.796027
3808.000000	7.791979
3807.000000	7.792488
3806.000000	7.794436
3805.000000	7.792938
3804.000000	7.786865
3803.000000	7.780672
3802.000000	7.780426
3801.000000	7.788383
3800.000000	7.801653
3799.000000	7.815604
3798.000000	7.827661
3797.000000	7.837991
3796.000000	7.847505
3795.000000	7.856194
3794.000000	7.863338
3793.000000	7.868582
3792.000000	7.872330
3791.000000	7.875258
3790.000000	7.877757
3789.000000	7.879870
3788.000000	7.881547
3787.000000	7.882897
3786.000000	7.884225
3785.000000	7.885731
3784.000000	7.887095
3783.000000	7.887553
3782.000000	7.886749
3781.000000	7.885582
3780.000000	7.885861
3779.000000	7.888873
3778.000000	7.894280
3777.000000	7.900349
3776.000000	7.905009
3775.000000	7.906671
3774.000000	7.904786
3773.000000	7.900311
3772.000000	7.895611
3771.000000	7.893188
3770.000000	7.894042
3769.000000	7.897334
3768.000000	7.901703
3767.000000	7.906591
3766.000000	7.912033
3765.000000	7.917459
3764.000000	7.921294
3763.000000	7.922044
3762.000000	7.919764
3761.000000	7.916397
3760.000000	7.914512
3759.000000	7.915268
3758.000000	7.917079
3757.000000	7.916095
3756.000000	7.908462
3755.000000	7.892887
3754.000000	7.871993
3753.000000	7.851727
3752.000000	7.838749
3751.000000	7.836721
3750.000000	7.843274
3749.000000	7.850678
3748.000000	7.851340
3747.000000	7.844419
3746.000000	7.837368
3745.000000	7.840067
3744.000000	7.856650
3743.000000	7.882322
3742.000000	7.907283
3741.000000	7.923349
3740.000000	7.927687
3739.000000	7.922664
3738.000000	7.913486
3737.000000	7.905399
3736.000000	7.901629
3735.000000	7.902848
3734.000000	7.908371
3733.000000	7.917411
3732.000000	7.928864
3731.000000	7.940437
3730.000000	7.949182
3729.000000	7.953605
3728.000000	7.954857
3727.000000	7.955440
3726.000000	7.956899
3725.000000	7.959037
3724.000000	7.961019
3723.000000	7.962577
3722.000000	7.964068
3721.000000	7.965911
3720.000000	7.968260
3719.000000	7.970767
3718.000000	7.972163
3717.000000	7.970389
3716.000000	7.964028
3715.000000	7.953761
3714.000000	7.941648
3713.000000	7.928406
3712.000000	7.912318
3711.000000	7.892301
3710.000000	7.872200
3709.000000	7.860268
3708.000000	7.862626
3707.000000	7.877168
3706.000000	7.894740
3705.000000	7.906743
3704.000000	7.911131
3703.000000	7.911487
3702.000000	7.911736
3701.000000	7.912739
3700.000000	7.913185
3699.000000	7.912038
3698.000000	7.909356
3697.000000	7.905408
3696.000000	7.899816
3695.000000	7.891507
3694.000000	7.879178
3693.000000	7.862053
3692.000000	7.841055
3691.000000	7.819670
3690.000000	7.803216
3689.000000	7.796062
3688.000000	7.798820
3687.000000	7.807789
3686.000000	7.817169
3685.000000	7.822164
3684.000000	7.820736
3683.000000	7.813369
3682.000000	7.801411
3681.000000	7.785254
3680.000000	7.763985
3679.000000	7.737334
3678.000000	7.708275
3677.000000	7.682820
3676.000000	7.665788
3675.000000	7.656569
3674.000000	7.649757
3673.000000	7.640531
3672.000000	7.629091
3671.000000	7.619685
3670.000000	7.615956
3669.000000	7.617811
3668.000000	7.622029
3667.000000	7.624784
3666.000000	7.623534
3665.000000	7.617655
3664.000000	7.608184
3663.000000	7.596764
3662.000000	7.584239
3661.000000	7.570028
3660.000000	7.553172
3659.000000	7.534124
3658.000000	7.515347
3657.000000	7.499752
3656.000000	7.488115
3655.000000	7.477858
3654.000000	7.464612
3653.000000	7.445555
3652.000000	7.421939
3651.000000	7.398750
3650.000000	7.381789
3649.000000	7.374412
3648.000000	7.375966
3647.000000	7.382573
3646.000000	7.389382
3645.000000	7.392886
3644.000000	7.391950
3643.000000	7.387361
3642.000000	7.380659
3641.000000	7.373211
3640.000000	7.365802
3639.000000	7.358530
3638.000000	7.351014
3637.000000	7.342925
3636.000000	7.334277
3635.000000	7.324811
3634.000000	7.313177
3633.000000	7.297570
3632.000000	7.278047
3631.000000	7.258217
3630.000000	7.243923
3629.000000	7.239389
3628.000000	7.244326
3627.000000	7.254336
3626.000000	7.263811
3625.000000	7.268558
3624.000000	7.266819
3623.000000	7.259161
3622.000000	7.248073
3621.000000	7.237140
3620.000000	7.229517
3619.000000	7.226292
3618.000000	7.226103
3617.000000	7.226370
3616.000000	7.225148
3615.000000	7.221989
3614.000000	7.217446
3613.000000	7.212159
3612.000000	7.206652
3611.000000	7.201746
3610.000000	7.198637
3609.000000	7.198205
3608.000000	7.200382
3607.000000	7.204246
3606.000000	7.208466
3605.000000	7.211320
3604.000000	7.210693
3603.000000	7.205013
3602.000000	7.194910
3601.000000	7.183652
3600.000000	7.175286
3599.000000	7.171883
3598.000000	7.172592
3597.000000	7.175084
3596.000000	7.177613
3595.000000	7.179616
3594.000000	7.180907
3593.000000	7.180841
3592.000000	7.178484
3591.000000	7.173531
3590.000000	7.167037
3589.000000	7.161236
3588.000000	7.158392
3587.000000	7.159513
3586.000000	7.163829
3585.000000	7.169472
3584.000000	7.174623
3583.000000	7.178283
3582.000000	7.180289
3581.000000	7.180944
3580.000000	7.180687
3579.000000	7.179959
3578.000000	7.179168
3577.000000	7.178646
3576.000000	7.178492
3575.000000	7.178424
3574.000000	7.177820
3573.000000	7.176008
3572.000000	7.172595
3571.000000	7.167654
3570.000000	7.161824
3569.000000	7.156318
3568.000000	7.152660
3567.000000	7.151955
3566.000000	7.154158
3565.000000	7.158042
3564.000000	7.162034
3563.000000	7.165161
3562.000000	7.167280
3561.000000	7.168615
3560.000000	7.169296
3559.000000	7.169336
3558.000000	7.168804
3557.000000	7.167853
3556.000000	7.166630
3555.000000	7.165314
3554.000000	7.164189
3553.000000	7.163511
3552.000000	7.163226
3551.000000	7.162936
3550.000000	7.162220
3549.000000	7.160992
3548.000000	7.159560
3547.000000	7.158444
3546.000000	7.158134
3545.000000	7.158849
3544.000000	7.160301
3543.000000	7.161740
3542.000000	7.162383
3541.000000	7.161943
3540.000000	7.160782
3539.000000	7.159590
3538.000000	7.158893
3537.000000	7.158721
3536.000000	7.158590
3535.000000	7.157819
3534.000000	7.156067
3533.000000	7.153625
3532.000000	7.151147
3531.000000	7.149055
3530.000000	7.147248
3529.000000	7.145370
3528.000000	7.143274
3527.000000	7.141158
3526.000000	7.139375
3525.000000	7.138143
3524.000000	7.137396
3523.000000	7.136832
3522.000000	7.136144
3521.000000	7.135222
3520.000000	7.134100
3519.000000	7.132724
3518.000000	7.130914
3517.000000	7.128610
3516.000000	7.126049
3515.000000	7.123557
3514.000000	7.121199
3513.000000	7.118750
3512.000000	7.116016
3511.000000	7.113083
3510.000000	7.110227
3509.000000	7.107652
3508.000000	7.105325
3507.000000	7.103037
3506.000000	7.100589
3505.000000	7.097976
3504.000000	7.095365
3503.000000	7.092896
3502.000000	7.090488
3501.000000	7.087883
3500.000000	7.084872
3499.000000	7.081455
3498.000000	7.077815
3497.000000	7.074192
3496.000000	7.070759
3495.000000	7.067534
3494.000000	7.064374
3493.000000	7.061114
3492.000000	7.057747
3491.000000	7.054443
3490.000000	7.051401
3489.000000	7.048699
3488.000000	7.046257
3487.000000	7.043868
3486.000000	7.041268
3485.000000	7.038327
3484.000000	7.035267
3483.000000	7.032637
3482.000000	7.030916
3481.000000	7.030099
3480.000000	7.029648
3479.000000	7.028853
3478.000000	7.027246
3477.000000	7.024846
3476.000000	7.022180
3475.000000	7.020055
3474.000000	7.019069
3473.000000	7.019152
3472.000000	7.019580
3471.000000	7.019563
3470.000000	7.018840
3469.000000	7.017741
3468.000000	7.016761
3467.000000	7.016184
3466.000000	7.016046
3465.000000	7.016249
3464.000000	7.016602
3463.000000	7.016865
3462.000000	7.016901
3461.000000	7.016792
3460.000000	7.016720
3459.000000	7.016740
3458.000000	7.016752
3457.000000	7.016677
3456.000000	7.016536
3455.000000	7.016322
3454.000000	7.015925
3453.000000	7.015303
3452.000000	7.014652
3451.000000	7.014229
3450.000000	7.013994
3449.000000	7.013537
3448.000000	7.012461
3447.000000	7.010809
3446.000000	7.009106
3445.000000	7.008011
3444.000000	7.007900
3443.000000	7.008626
3442.000000	7.009637
3441.000000	7.010414
3440.000000	7.010967
3439.000000	7.011925
3438.000000	7.014046
3437.000000	7.017569
3436.000000	7.022022
3435.000000	7.026618
3434.000000	7.030808
3433.000000	7.034534
3432.000000	7.038084
3431.000000	7.041777
3430.000000	7.045711
3429.000000	7.049766
3428.000000	7.053766
3427.000000	7.057561
3426.000000	7.060924
3425.000000	7.063500
3424.000000	7.065080
3423.000000	7.065995
3422.000000	7.067115
3421.000000	7.069276
3420.000000	7.072634
3419.000000	7.076577
3418.000000	7.080259
3417.000000	7.083259
3416.000000	7.085821
3415.000000	7.088498
3414.000000	7.091560
3413.000000	7.094700
3412.000000	7.097284
3411.000000	7.098864
3410.000000	7.099464
3409.000000	7.099465
3408.000000	7.099357
3407.000000	7.099539
3406.000000	7.100168
3405.000000	7.101128
3404.000000	7.102238
3403.000000	7.103528
3402.000000	7.105218
3401.000000	7.107390
3400.000000	7.109798
3399.000000	7.112103
3398.000000	7.114157
3397.000000	7.115973
3396.000000	7.117555
3395.000000	7.118950
3394.000000	7.120379
3393.000000	7.122096
3392.000000	7.124102
3391.000000	7.126167
3390.000000	7.128159
3389.000000	7.130211
3388.000000	7.132481
3387.000000	7.134873
3386.000000	7.137085
3385.000000	7.138881
3384.000000	7.140223
3383.000000	7.141222
3382.000000	7.142048
3381.000000	7.142926
3380.000000	7.144144
3379.000000	7.145978
3378.000000	7.148501
3377.000000	7.151443
3376.000000	7.154264
3375.000000	7.156463
3374.000000	7.157829
3373.000000	7.158423
3372.000000	7.158442
3371.000000	7.158213
3370.000000	7.158237
3369.000000	7.159022
3368.000000	7.160740
3367.000000	7.163039
3366.000000	7.165259
3365.000000	7.166892
3364.000000	7.167993
3363.000000	7.169241
3362.000000	7.171480
3361.000000	7.174939
3360.000000	7.178821
3359.000000	7.181827
3358.000000	7.183245
3357.000000	7.183472
3356.000000	7.183480
3355.000000	7.183897
3354.000000	7.184742
3353.000000	7.185860
3352.000000	7.187263
3351.000000	7.188932
3350.000000	7.190555
3349.000000	7.191779
3348.000000	7.192693
3347.000000	7.193820
3346.000000	7.195499
3345.000000	7.197467
3344.000000	7.199239
3343.000000	7.200773
3342.000000	7.202500
3341.000000	7.204684
3340.000000	7.207049
3339.000000	7.209149
3338.000000	7.210878
3337.000000	7.212438
3336.000000	7.213990
3335.000000	7.215566
3334.000000	7.217210
3333.000000	7.218907
3332.000000	7.220361
3331.000000	7.221083
3330.000000	7.220845
3329.000000	7.219978
3328.000000	7.219230
3327.000000	7.219370
3326.000000	7.220820
3325.000000	7.223414
3324.000000	7.226448
3323.000000	7.229105
3322.000000	7.230951
3321.000000	7.232067
3320.000000	7.232850
3319.000000	7.233855
3318.000000	7.235664
3317.000000	7.238497
3316.000000	7.241826
3315.000000	7.244616
3314.000000	7.246126
3313.000000	7.246375
3312.000000	7.245837
3311.000000	7.244975
3310.000000	7.244242
3309.000000	7.244214
3308.000000	7.245285
3307.000000	7.247204
3306.000000	7.249203
3305.000000	7.250633
3304.000000	7.251394
3303.000000	7.251807
3302.000000	7.252309
3301.000000	7.253291
3300.000000	7.254921
3299.000000	7.256903
3298.000000	7.258519
3297.000000	7.259170
3296.000000	7.258980
3295.000000	7.258783
3294.000000	7.259424
3293.000000	7.261026
3292.000000	7.262954
3291.000000	7.264442
3290.000000	7.265235
3289.000000	7.265709
3288.000000	7.266479
3287.000000	7.267922
3286.000000	7.269886
3285.000000	7.271761
3284.000000	7.272919
3283.000000	7.273278
3282.000000	7.273424
3281.000000	7.274046
3280.000000	7.275276
3279.000000	7.276746
3278.000000	7.278242
3277.000000	7.280038
3276.000000	7.282452
3275.000000	7.285235
3274.000000	7.287590
3273.000000	7.288784
3272.000000	7.288725
3271.000000	7.288053
3270.000000	7.287714
3269.000000	7.288317
3268.000000	7.289778
3267.000000	7.291622
3266.000000	7.293616
3265.000000	7.295899
3264.000000	7.298439
3263.000000	7.300633
3262.000000	7.301753
3261.000000	7.301742
3260.000000	7.301386
3259.000000	7.301656
3258.000000	7.302983
3257.000000	7.305068
3256.000000	7.307215
3255.000000	7.308876
3254.000000	7.310062
3253.000000	7.311268
3252.000000	7.312921
3251.000000	7.314907
3250.000000	7.316752
3249.000000	7.318209
3248.000000	7.319510
3247.000000	7.321018
3246.000000	7.322819
3245.000000	7.324716
3244.000000	7.326514
3243.000000	7.328196
3242.000000	7.329855
3241.000000	7.331536
3240.000000	7.333142
3239.000000	7.334521
3238.000000	7.335633
3237.000000	7.336580
3236.000000	7.337444
3235.000000	7.338241
3234.000000	7.339143
3233.000000	7.340593
3232.000000	7.342900
3231.000000	7.345731
3230.000000	7.348238
3229.000000	7.349829
3228.000000	7.350667
3227.000000	7.351307
3226.000000	7.352053
3225.000000	7.352835
3224.000000	7.353567
3223.000000	7.354353
3222.000000	7.355320
3221.000000	7.356428
3220.000000	7.357564
3219.000000	7.358720
3218.000000	7.359999
3217.000000	7.361501
3216.000000	7.363284
3215.000000	7.365439
3214.000000	7.368106
3213.000000	7.371303
3212.000000	7.374713
3211.000000	7.377738
3210.000000	7.379900
3209.000000	7.381237
3208.000000	7.382284
3207.000000	7.383663
3206.000000	7.385770
3205.000000	7.388726
3204.000000	7.392384
3203.000000	7.396229
3202.000000	7.399504
3201.000000	7.401784
3200.000000	7.403477
3199.000000	7.405552
3198.000000	7.408663
3197.000000	7.412657
3196.000000	7.416964
3195.000000	7.421196
3194.000000	7.425203
3193.000000	7.428739
3192.000000	7.431494
3191.000000	7.433523
3190.000000	7.435409
3189.000000	7.437799
3188.000000	7.440893
3187.000000	7.444461
3186.000000	7.448216
3185.000000	7.451976
3184.000000	7.455555
3183.000000	7.458806
3182.000000	7.461838
3181.000000	7.465001
3180.000000	7.468511
3179.000000	7.472169
3178.000000	7.475627
3177.000000	7.478848
3176.000000	7.482148
3175.000000	7.485741
3174.000000	7.489404
3173.000000	7.492697
3172.000000	7.495425
3171.000000	7.497774
3170.000000	7.500061
3169.000000	7.502510
3168.000000	7.505288
3167.000000	7.508561
3166.000000	7.512360
3165.000000	7.516448
3164.000000	7.520484
3163.000000	7.524312
3162.000000	7.528031
3161.000000	7.531787
3160.000000	7.535617
3159.000000	7.539455
3158.000000	7.543148
3157.000000	7.546446
3156.000000	7.549155
3155.000000	7.551430
3154.000000	7.553811
3153.000000	7.556833
3152.000000	7.560574
3151.000000	7.564622
3150.000000	7.568378
3149.000000	7.571393
3148.000000	7.573618
3147.000000	7.575517
3146.000000	7.577863
3145.000000	7.581158
3144.000000	7.585201
3143.000000	7.589300
3142.000000	7.592900
3141.000000	7.595897
3140.000000	7.598482
3139.000000	7.600928
3138.000000	7.603543
3137.000000	7.606548
3136.000000	7.609826
3135.000000	7.613004
3134.000000	7.615905
3133.000000	7.618787
3132.000000	7.621935
3131.000000	7.625181
3130.000000	7.628074
3129.000000	7.630485
3128.000000	7.632753
3127.000000	7.635139
3126.000000	7.637374
3125.000000	7.638958
3124.000000	7.639856
3123.000000	7.640707
3122.000000	7.642258
3121.000000	7.644691
3120.000000	7.647543
3119.000000	7.650283
3118.000000	7.652886
3117.000000	7.655821
3116.000000	7.659495
3115.000000	7.663714
3114.000000	7.667702
3113.000000	7.670664
3112.000000	7.672425
3111.000000	7.673552
3110.000000	7.674881
3109.000000	7.676866
3108.000000	7.679379
3107.000000	7.682046
3106.000000	7.684658
3105.000000	7.687234
3104.000000	7.689830
3103.000000	7.692472
3102.000000	7.695240
3101.000000	7.698285
3100.000000	7.701703
3099.000000	7.705436
3098.000000	7.709313
3097.000000	7.713117
3096.000000	7.716637
3095.000000	7.719776
3094.000000	7.722659
3093.000000	7.725599
3092.000000	7.728876
3091.000000	7.732537
3090.000000	7.736361
3089.000000	7.739971
3088.000000	7.743075
3087.000000	7.745754
3086.000000	7.748510
3085.000000	7.751865
3084.000000	7.755813
3083.000000	7.759745
3082.000000	7.762986
3081.000000	7.765391
3080.000000	7.767412
3079.000000	7.769679
3078.000000	7.772518
3077.000000	7.775741
3076.000000	7.778836
3075.000000	7.781447
3074.000000	7.783754
3073.000000	7.786250
3072.000000	7.789052
3071.000000	7.791576
3070.000000	7.793109
3069.000000	7.793650
3068.000000	7.793981
3067.000000	7.794901
3066.000000	7.796615
3065.000000	7.798962
3064.000000	7.801962
3063.000000	7.805812
3062.000000	7.810389
3061.000000	7.815060
3060.000000	7.819183
3059.000000	7.822641
3058.000000	7.825779
3057.000000	7.828922
3056.000000	7.832168
3055.000000	7.835561
3054.000000	7.839157
3053.000000	7.842861
3052.000000	7.846442
3051.000000	7.849887
3050.000000	7.853541
3049.000000	7.857672
3048.000000	7.861994
3047.000000	7.865861
3046.000000	7.868911
3045.000000	7.871340
3044.000000	7.873553
3043.000000	7.875817
3042.000000	7.878272
3041.000000	7.881036
3040.000000	7.884091
3039.000000	7.887139
3038.000000	7.889728
3037.000000	7.891569
3036.000000	7.892747
3035.000000	7.893661
3034.000000	7.894733
3033.000000	7.896070
3032.000000	7.897370
3031.000000	7.898207
3030.000000	7.898353
3029.000000	7.897716
3028.000000	7.896088
3027.000000	7.893221
3026.000000	7.889220
3025.000000	7.884665
3024.000000	7.880237
3023.000000	7.876390
3022.000000	7.873451
3021.000000	7.871844
3020.000000	7.872041
3019.000000	7.874403
3018.000000	7.879192
3017.000000	7.886582
3016.000000	7.896486
3015.000000	7.908431
3014.000000	7.921770
3013.000000	7.935968
3012.000000	7.950591
3011.000000	7.965127
3010.000000	7.979019
3009.000000	7.991837
3008.000000	8.003329
3007.000000	8.013413
3006.000000	8.022253
3005.000000	8.030267
3004.000000	8.037811
3003.000000	8.044867
3002.000000	8.051204
3001.000000	8.056816
3000.000000	8.061992
2999.000000	8.066948
2998.000000	8.071630
2997.000000	8.075965
2996.000000	8.080085
2995.000000	8.084129
2994.000000	8.087977
2993.000000	8.091405
2992.000000	8.094471
2991.000000	8.097531
2990.000000	8.100853
2989.000000	8.104338
2988.000000	8.107699
2987.000000	8.110758
2986.000000	8.113416
2985.000000	8.115405
2984.000000	8.116341
2983.000000	8.116153
2982.000000	8.115314
2981.000000	8.114439
2980.000000	8.113622
2979.000000	8.112289
2978.000000	8.109692
2977.000000	8.105438
2976.000000	8.099582
2975.000000	8.092416
2974.000000	8.084209
2973.000000	8.074969
2972.000000	8.064368
2971.000000	8.052092
2970.000000	8.038419
2969.000000	8.024313
2968.000000	8.010760
2967.000000	7.998136
2966.000000	7.986425
2965.000000	7.975977
2964.000000	7.967734
2963.000000	7.962662
2962.000000	7.961072
2961.000000	7.962518
2960.000000	7.966160
2959.000000	7.971212
2958.000000	7.977216
2957.000000	7.984022
2956.000000	7.991491
2955.000000	7.999237
2954.000000	8.006751
2953.000000	8.013705
2952.000000	8.019911
2951.000000	8.024975
2950.000000	8.028244
2949.000000	8.029245
2948.000000	8.027965
2947.000000	8.024500
2946.000000	8.018573
2945.000000	8.009688
2944.000000	7.997746
2943.000000	7.983289
2942.000000	7.967052
2941.000000	7.949477
2940.000000	7.930759
2939.000000	7.911253
2938.000000	7.891652
2937.000000	7.872769
2936.000000	7.855222
2935.000000	7.839261
2934.000000	7.824703
2933.000000	7.810946
2932.000000	7.797257
2931.000000	7.783315
2930.000000	7.769607
2929.000000	7.757265
2928.000000	7.747535
2927.000000	7.741494
2926.000000	7.740196
2925.000000	7.744856
2924.000000	7.756609
2923.000000	7.776018
2922.000000	7.802757
2921.000000	7.835652
2920.000000	7.872991
2919.000000	7.912969
2918.000000	7.954136
2917.000000	7.995596
2916.000000	8.036815
2915.000000	8.077305
2914.000000	8.116461
2913.000000	8.153562
2912.000000	8.187840
2911.000000	8.218661
2910.000000	8.245857
2909.000000	8.269842
2908.000000	8.291280
2907.000000	8.310688
2906.000000	8.328502
2905.000000	8.345382
2904.000000	8.362092
2903.000000	8.378932
2902.000000	8.395474
2901.000000	8.411054
2900.000000	8.425406
2899.000000	8.438769
2898.000000	8.451551
2897.000000	8.464105
2896.000000	8.476750
2895.000000	8.489760
2894.000000	8.503184
2893.000000	8.516722
2892.000000	8.529861
2891.000000	8.542199
2890.000000	8.553689
2889.000000	8.564513
2888.000000	8.574688
2887.000000	8.583876
2886.000000	8.591737
2885.000000	8.598413
2884.000000	8.604459
2883.000000	8.610235
2882.000000	8.615536
2881.000000	8.619891
2880.000000	8.623008
2879.000000	8.624789
2878.000000	8.625069
2877.000000	8.623604
2876.000000	8.620271
2875.000000	8.615125
2874.000000	8.608307
2873.000000	8.599978
2872.000000	8.590214
2871.000000	8.578739
2870.000000	8.564828
2869.000000	8.547740
2868.000000	8.527398
2867.000000	8.504643
2866.000000	8.480975
2865.000000	8.458205
2864.000000	8.438231
2863.000000	8.422715
2862.000000	8.412731
2861.000000	8.408666
2860.000000	8.410423
2859.000000	8.417529
2858.000000	8.429090
2857.000000	8.443941
2856.000000	8.461046
2855.000000	8.479741
2854.000000	8.499647
2853.000000	8.520647
2852.000000	8.543085
2851.000000	8.567751
2850.000000	8.595288
2849.000000	8.625487
2848.000000	8.657127
2847.000000	8.688468
2846.000000	8.717986
2845.000000	8.744893
2844.000000	8.769250
2843.000000	8.791563
2842.000000	8.812164
2841.000000	8.830963
2840.000000	8.847784
2839.000000	8.862814
2838.000000	8.876560
2837.000000	8.889479
2836.000000	8.901738
2835.000000	8.913267
2834.000000	8.923855
2833.000000	8.933256
2832.000000	8.941409
2831.000000	8.948649
2830.000000	8.955624
2829.000000	8.962923
2828.000000	8.970754
2827.000000	8.978918
2826.000000	8.986991
2825.000000	8.994593
2824.000000	9.001585
2823.000000	9.008076
2822.000000	9.014254
2821.000000	9.020201
2820.000000	9.025875
2819.000000	9.031182
2818.000000	9.036046
2817.000000	9.040534
2816.000000	9.044944
2815.000000	9.049627
2814.000000	9.054601
2813.000000	9.059473
2812.000000	9.063856
2811.000000	9.067794
2810.000000	9.071608
2809.000000	9.075458
2808.000000	9.079262
2807.000000	9.082996
2806.000000	9.086842
2805.000000	9.090979
2804.000000	9.095373
2803.000000	9.099779
2802.000000	9.103859
2801.000000	9.107346
2800.000000	9.110255
2799.000000	9.112903
2798.000000	9.115564
2797.000000	9.118152
2796.000000	9.120477
2795.000000	9.122763
2794.000000	9.125627
2793.000000	9.129459
2792.000000	9.134077
2791.000000	9.139068
2790.000000	9.144191
2789.000000	9.149286
2788.000000	9.154077
2787.000000	9.158400
2786.000000	9.162529
2785.000000	9.166998
2784.000000	9.172059
2783.000000	9.177444
2782.000000	9.182656
2781.000000	9.187369
2780.000000	9.191581
2779.000000	9.195504
2778.000000	9.199341
2777.000000	9.203166
2776.000000	9.207011
2775.000000	9.211022
2774.000000	9.215332
2773.000000	9.219741
2772.000000	9.223736
2771.000000	9.226974
2770.000000	9.229625
2769.000000	9.232049
2768.000000	9.234304
2767.000000	9.236251
2766.000000	9.238087
2765.000000	9.240457
2764.000000	9.243860
2763.000000	9.248092
2762.000000	9.252359
2761.000000	9.255936
2760.000000	9.258692
2759.000000	9.261063
2758.000000	9.263609
2757.000000	9.266559
2756.000000	9.269746
2755.000000	9.272896
2754.000000	9.275869
2753.000000	9.278638
2752.000000	9.281193
2751.000000	9.283619
2750.000000	9.286160
2749.000000	9.288994
2748.000000	9.291931
2747.000000	9.294463
2746.000000	9.296169
2745.000000	9.297042
2744.000000	9.297507
2743.000000	9.298210
2742.000000	9.299693
2741.000000	9.302038
2740.000000	9.304752
2739.000000	9.307155
2738.000000	9.308986
2737.000000	9.310594
2736.000000	9.312508
2735.000000	9.314887
2734.000000	9.317404
2733.000000	9.319565
2732.000000	9.321136
2731.000000	9.322322
2730.000000	9.323580
2729.000000	9.325205
2728.000000	9.327075
2727.000000	9.328847
2726.000000	9.330377
2725.000000	9.331856
2724.000000	9.333540
2723.000000	9.335473
2722.000000	9.337521
2721.000000	9.339545
2720.000000	9.341462
2719.000000	9.343198
2718.000000	9.344688
2717.000000	9.345932
2716.000000	9.347021
2715.000000	9.348121
2714.000000	9.349386
2713.000000	9.350807
2712.000000	9.352151
2711.000000	9.353172
2710.000000	9.353909
2709.000000	9.354674
2708.000000	9.355667
2707.000000	9.356727
2706.000000	9.357589
2705.000000	9.358319
2704.000000	9.359328
2703.000000	9.360951
2702.000000	9.363131
2701.000000	9.365554
2700.000000	9.367975
2699.000000	9.370324
2698.000000	9.372551
2697.000000	9.374500
2696.000000	9.375978
2695.000000	9.376921
2694.000000	9.377440
2693.000000	9.377731
2692.000000	9.377980
2691.000000	9.378388
2690.000000	9.379199
2689.000000	9.380607
2688.000000	9.382569
2687.000000	9.384759
2686.000000	9.386746
2685.000000	9.388250
2684.000000	9.389231
2683.000000	9.389795
2682.000000	9.390073
2681.000000	9.390203
2680.000000	9.390391
2679.000000	9.390915
2678.000000	9.391994
2677.000000	9.393554
2676.000000	9.395153
2675.000000	9.396242
2674.000000	9.396618
2673.000000	9.396602
2672.000000	9.396704
2671.000000	9.397128
2670.000000	9.397717
2669.000000	9.398334
2668.000000	9.399097
2667.000000	9.400124
2666.000000	9.401175
2665.000000	9.401791
2664.000000	9.401767
2663.000000	9.401341
2662.000000	9.400866
2661.000000	9.400474
2660.000000	9.400133
2659.000000	9.399861
2658.000000	9.399729
2657.000000	9.399750
2656.000000	9.399931
2655.000000	9.400369
2654.000000	9.401116
2653.000000	9.401971
2652.000000	9.402601
2651.000000	9.402877
2650.000000	9.402954
2649.000000	9.402966
2648.000000	9.402835
2647.000000	9.402457
2646.000000	9.401933
2645.000000	9.401490
2644.000000	9.401256
2643.000000	9.401232
2642.000000	9.401388
2641.000000	9.401659
2640.000000	9.401900
2639.000000	9.401981
2638.000000	9.401911
2637.000000	9.401779
2636.000000	9.401601
2635.000000	9.401322
2634.000000	9.400940
2633.000000	9.400490
2632.000000	9.399916
2631.000000	9.399081
2630.000000	9.398005
2629.000000	9.396968
2628.000000	9.396284
2627.000000	9.396001
2626.000000	9.395878
2625.000000	9.395653
2624.000000	9.395251
2623.000000	9.394764
2622.000000	9.394291
2621.000000	9.393801
2620.000000	9.393122
2619.000000	9.392048
2618.000000	9.390525
2617.000000	9.388772
2616.000000	9.387148
2615.000000	9.385856
2614.000000	9.384793
2613.000000	9.383742
2612.000000	9.382681
2611.000000	9.381771
2610.000000	9.381068
2609.000000	9.380354
2608.000000	9.379348
2607.000000	9.378002
2606.000000	9.376514
2605.000000	9.375111
2604.000000	9.373889
2603.000000	9.372811
2602.000000	9.371731
2601.000000	9.370455
2600.000000	9.368871
2599.000000	9.367056
2598.000000	9.365162
2597.000000	9.363195
2596.000000	9.360996
2595.000000	9.358480
2594.000000	9.355873
2593.000000	9.353646
2592.000000	9.352203
2591.000000	9.351589
2590.000000	9.351480
2589.000000	9.351452
2588.000000	9.351290
2587.000000	9.351064
2586.000000	9.350960
2585.000000	9.351127
2584.000000	9.351629
2583.000000	9.352399
2582.000000	9.353187
2581.000000	9.353706
2580.000000	9.353939
2579.000000	9.354146
2578.000000	9.354473
2577.000000	9.354695
2576.000000	9.354503
2575.000000	9.353902
2574.000000	9.353116
2573.000000	9.352255
2572.000000	9.351335
2571.000000	9.350534
2570.000000	9.350058
2569.000000	9.349756
2568.000000	9.349184
2567.000000	9.348131
2566.000000	9.346818
2565.000000	9.345480
2564.000000	9.344032
2563.000000	9.342291
2562.000000	9.340327
2561.000000	9.338400
2560.000000	9.336688
2559.000000	9.335156
2558.000000	9.333549
2557.000000	9.331479
2556.000000	9.328796
2555.000000	9.325966
2554.000000	9.323793
2553.000000	9.322555
2552.000000	9.321659
2551.000000	9.320371
2550.000000	9.318624
2549.000000	9.316785
2548.000000	9.314861
2547.000000	9.312439
2546.000000	9.309419
2545.000000	9.306389
2544.000000	9.304087
2543.000000	9.302662
2542.000000	9.301585
2541.000000	9.300127
2540.000000	9.297921
2539.000000	9.295211
2538.000000	9.292631
2537.000000	9.290629
2536.000000	9.289034
2535.000000	9.287281
2534.000000	9.285062
2533.000000	9.282603
2532.000000	9.280295
2531.000000	9.278228
2530.000000	9.276221
2529.000000	9.274140
2528.000000	9.272014
2527.000000	9.269870
2526.000000	9.267639
2525.000000	9.265278
2524.000000	9.262848
2523.000000	9.260380
2522.000000	9.257747
2521.000000	9.254844
2520.000000	9.251903
2519.000000	9.249422
2518.000000	9.247635
2517.000000	9.246172
2516.000000	9.244407
2515.000000	9.242072
2514.000000	9.239337
2513.000000	9.236386
2512.000000	9.233249
2511.000000	9.230113
2510.000000	9.227457
2509.000000	9.225641
2508.000000	9.224515
2507.000000	9.223591
2506.000000	9.222461
2505.000000	9.220927
2504.000000	9.218942
2503.000000	9.216692
2502.000000	9.214594
2501.000000	9.212946
2500.000000	9.211622
2499.000000	9.210303
2498.000000	9.208898
2497.000000	9.207520
2496.000000	9.206148
2495.000000	9.204665
2494.000000	9.203197
2493.000000	9.202071
2492.000000	9.201355
2491.000000	9.200737
2490.000000	9.200017
2489.000000	9.199472
2488.000000	9.199463
2487.000000	9.199826
2486.000000	9.199896
2485.000000	9.199166
2484.000000	9.197792
2483.000000	9.196409
2482.000000	9.195523
2481.000000	9.195132
2480.000000	9.194897
2479.000000	9.194621
2478.000000	9.194460
2477.000000	9.194654
2476.000000	9.195135
2475.000000	9.195559
2474.000000	9.195707
2473.000000	9.195692
2472.000000	9.195724
2471.000000	9.195786
2470.000000	9.195695
2469.000000	9.195431
2468.000000	9.195257
2467.000000	9.195454
2466.000000	9.196002
2465.000000	9.196610
2464.000000	9.197016
2463.000000	9.197168
2462.000000	9.197100
2461.000000	9.196809
2460.000000	9.196392
2459.000000	9.196190
2458.000000	9.196582
2457.000000	9.197605
2456.000000	9.198971
2455.000000	9.200467
2454.000000	9.202151
2453.000000	9.204047
2452.000000	9.205912
2451.000000	9.207491
2450.000000	9.208851
2449.000000	9.210230
2448.000000	9.211680
2447.000000	9.213103
2446.000000	9.214579
2445.000000	9.216370
2444.000000	9.218595
2443.000000	9.221113
2442.000000	9.223777
2441.000000	9.226553
2440.000000	9.229312
2439.000000	9.231759
2438.000000	9.233748
2437.000000	9.235507
2436.000000	9.237380
2435.000000	9.239428
2434.000000	9.241454
2433.000000	9.243356
2432.000000	9.245263
2431.000000	9.247354
2430.000000	9.249699
2429.000000	9.252308
2428.000000	9.255164
2427.000000	9.258125
2426.000000	9.260947
2425.000000	9.263540
2424.000000	9.266127
2423.000000	9.269032
2422.000000	9.272331
2421.000000	9.275806
2420.000000	9.279226
2419.000000	9.282532
2418.000000	9.285749
2417.000000	9.288856
2416.000000	9.291824
2415.000000	9.294686
2414.000000	9.297524
2413.000000	9.300430
2412.000000	9.303465
2411.000000	9.306517
2410.000000	9.309218
2409.000000	9.311285
2408.000000	9.313026
2407.000000	9.315223
2406.000000	9.318243
2405.000000	9.321534
2404.000000	9.324327
2403.000000	9.326613
2402.000000	9.328985
2401.000000	9.331628
2400.000000	9.334080
2399.000000	9.336075
2398.000000	9.338042
2397.000000	9.340449
2396.000000	9.343088
2395.000000	9.345428
2394.000000	9.347375
2393.000000	9.349240
2392.000000	9.351057
2391.000000	9.352390
2390.000000	9.352779
2389.000000	9.352106
2388.000000	9.350422
2387.000000	9.347581
2386.000000	9.342913
2385.000000	9.334989
2384.000000	9.321735
2383.000000	9.301203
2382.000000	9.272660
2381.000000	9.237225
2380.000000	9.197684
2379.000000	9.157595
2378.000000	9.119963
2377.000000	9.086041
2376.000000	9.055090
2375.000000	9.025433
2374.000000	8.995831
2373.000000	8.965962
2372.000000	8.936025
2371.000000	8.906405
2370.000000	8.877732
2369.000000	8.850779
2368.000000	8.825963
2367.000000	8.803085
2366.000000	8.781739
2365.000000	8.761973
2364.000000	8.744499
2363.000000	8.730364
2362.000000	8.720424
2361.000000	8.715027
2360.000000	8.714087
2359.000000	8.717533
2358.000000	8.725682
2357.000000	8.739084
2356.000000	8.757954
2355.000000	8.781792
2354.000000	8.809462
2353.000000	8.839280
2352.000000	8.868709
2351.000000	8.894003
2350.000000	8.910692
2349.000000	8.915165
2348.000000	8.906555
2347.000000	8.887347
2346.000000	8.861956
2345.000000	8.834418
2344.000000	8.807176
2343.000000	8.781820
2342.000000	8.760369
2341.000000	8.745299
2340.000000	8.738278
2339.000000	8.739081
2338.000000	8.745700
2337.000000	8.755329
2336.000000	8.765474
2335.000000	8.774845
2334.000000	8.783717
2333.000000	8.793358
2332.000000	8.804767
2331.000000	8.817810
2330.000000	8.831526
2329.000000	8.845123
2328.000000	8.858528
2327.000000	8.872068
2326.000000	8.885860
2325.000000	8.899656
2324.000000	8.913229
2323.000000	8.926751
2322.000000	8.940650
2321.000000	8.955009
2320.000000	8.969215
2319.000000	8.982351
2318.000000	8.993984
2317.000000	9.004454
2316.000000	9.014366
2315.000000	9.023936
2314.000000	9.032926
2313.000000	9.041089
2312.000000	9.048504
2311.000000	9.055483
2310.000000	9.062286
2309.000000	9.068907
2308.000000	9.075050
2307.000000	9.080301
2306.000000	9.084504
2305.000000	9.088039
2304.000000	9.091575
2303.000000	9.095428
2302.000000	9.099241
2301.000000	9.102451
2300.000000	9.104971
2299.000000	9.107234
2298.000000	9.109567
2297.000000	9.111808
2296.000000	9.113606
2295.000000	9.114908
2294.000000	9.116015
2293.000000	9.117321
2292.000000	9.119113
2291.000000	9.121475
2290.000000	9.124248
2289.000000	9.127182
2288.000000	9.130083
2287.000000	9.132410
2286.000000	9.132649
2285.000000	9.128883
2284.000000	9.120860
2283.000000	9.111354
2282.000000	9.104581
2281.000000	9.102855
2280.000000	9.105133
2279.000000	9.108773
2278.000000	9.112014
2277.000000	9.114539
2276.000000	9.116557
2275.000000	9.118218
2274.000000	9.119639
2273.000000	9.120753
2272.000000	9.121132
2271.000000	9.120461
2270.000000	9.119191
2269.000000	9.118249
2268.000000	9.118090
2267.000000	9.118407
2266.000000	9.118792
2265.000000	9.119232
2264.000000	9.119826
2263.000000	9.120379
2262.000000	9.120553
2261.000000	9.120228
2260.000000	9.119570
2259.000000	9.118885
2258.000000	9.118474
2257.000000	9.118468
2256.000000	9.118702
2255.000000	9.118903
2254.000000	9.119068
2253.000000	9.119467
2252.000000	9.120161
2251.000000	9.120689
2250.000000	9.120469
2249.000000	9.119520
2248.000000	9.118649
2247.000000	9.118810
2246.000000	9.120236
2245.000000	9.122217
2244.000000	9.123770
2243.000000	9.124491
2242.000000	9.124693
2241.000000	9.124791
2240.000000	9.124868
2239.000000	9.124920
2238.000000	9.125213
2237.000000	9.126050
2236.000000	9.127331
2235.000000	9.128651
2234.000000	9.129810
2233.000000	9.130889
2232.000000	9.131861
2231.000000	9.132447
2230.000000	9.132505
2229.000000	9.132315
2228.000000	9.132308
2227.000000	9.132649
2226.000000	9.133166
2225.000000	9.133576
2224.000000	9.133708
2223.000000	9.133651
2222.000000	9.133769
2221.000000	9.134442
2220.000000	9.135689
2219.000000	9.137112
2218.000000	9.138266
2217.000000	9.138986
2216.000000	9.139339
2215.000000	9.139446
2214.000000	9.139477
2213.000000	9.139712
2212.000000	9.140398
2211.000000	9.141521
2210.000000	9.142777
2209.000000	9.143795
2208.000000	9.144393
2207.000000	9.144684
2206.000000	9.144989
2205.000000	9.145590
2204.000000	9.146468
2203.000000	9.147319
2202.000000	9.147855
2201.000000	9.148105
2200.000000	9.148353
2199.000000	9.148813
2198.000000	9.149437
2197.000000	9.150086
2196.000000	9.150813
2195.000000	9.151836
2194.000000	9.153199
2193.000000	9.154563
2192.000000	9.155485
2191.000000	9.155883
2190.000000	9.156090
2189.000000	9.156415
2188.000000	9.156816
2187.000000	9.157090
2186.000000	9.157264
2185.000000	9.157606
2184.000000	9.158286
2183.000000	9.159151
2182.000000	9.159879
2181.000000	9.160279
2180.000000	9.160446
2179.000000	9.160698
2178.000000	9.161360
2177.000000	9.162539
2176.000000	9.164000
2175.000000	9.165243
2174.000000	9.165712
2173.000000	9.165025
2172.000000	9.163180
2171.000000	9.160722
2170.000000	9.158692
2169.000000	9.158233
2168.000000	9.159959
2167.000000	9.163534
2166.000000	9.167822
2165.000000	9.171576
2164.000000	9.174150
2163.000000	9.175633
2162.000000	9.176440
2161.000000	9.176911
2160.000000	9.177339
2159.000000	9.178093
2158.000000	9.179414
2157.000000	9.181122
2156.000000	9.182745
2155.000000	9.183993
2154.000000	9.184969
2153.000000	9.185970
2152.000000	9.187298
2151.000000	9.189234
2150.000000	9.191863
2149.000000	9.194792
2148.000000	9.197264
2147.000000	9.198785
2146.000000	9.199552
2145.000000	9.200179
2144.000000	9.201137
2143.000000	9.202515
2142.000000	9.204137
2141.000000	9.205767
2140.000000	9.207355
2139.000000	9.209172
2138.000000	9.211511
2137.000000	9.214129
2136.000000	9.216243
2135.000000	9.217346
2134.000000	9.217864
2133.000000	9.218730
2132.000000	9.220412
2131.000000	9.222591
2130.000000	9.224663
2129.000000	9.226207
2128.000000	9.227032
2127.000000	9.227262
2126.000000	9.227578
2125.000000	9.229017
2124.000000	9.232111
2123.000000	9.236272
2122.000000	9.240277
2121.000000	9.243401
2120.000000	9.245900
2119.000000	9.248401
2118.000000	9.251114
2117.000000	9.253807
2116.000000	9.256328
2115.000000	9.258795
2114.000000	9.261303
2113.000000	9.263765
2112.000000	9.266164
2111.000000	9.268679
2110.000000	9.271384
2109.000000	9.274085
2108.000000	9.276706
2107.000000	9.279642
2106.000000	9.283373
2105.000000	9.287804
2104.000000	9.292272
2103.000000	9.296191
2102.000000	9.299409
2101.000000	9.302052
2100.000000	9.304373
2099.000000	9.306804
2098.000000	9.309812
2097.000000	9.313582
2096.000000	9.317952
2095.000000	9.322573
2094.000000	9.326905
2093.000000	9.330248
2092.000000	9.332309
2091.000000	9.333798
2090.000000	9.335986
2089.000000	9.339515
2088.000000	9.343973
2087.000000	9.348645
2086.000000	9.353160
2085.000000	9.357282
2084.000000	9.360737
2083.000000	9.363696
2082.000000	9.366960
2081.000000	9.371171
2080.000000	9.376044
2079.000000	9.380764
2078.000000	9.384882
2077.000000	9.388474
2076.000000	9.391724
2075.000000	9.394847
2074.000000	9.398260
2073.000000	9.402324
2072.000000	9.406954
2071.000000	9.411767
2070.000000	9.416518
2069.000000	9.421071
2068.000000	9.425200
2067.000000	9.428923
2066.000000	9.432994
2065.000000	9.438442
2064.000000	9.445356
2063.000000	9.452432
2062.000000	9.457984
2061.000000	9.461375
2060.000000	9.463394
2059.000000	9.465406
2058.000000	9.468245
2057.000000	9.471879
2056.000000	9.475953
2055.000000	9.480392
2054.000000	9.485285
2053.000000	9.490365
2052.000000	9.495040
2051.000000	9.499072
2050.000000	9.502862
2049.000000	9.506864
2048.000000	9.511044
2047.000000	9.515168
2046.000000	9.519250
2045.000000	9.523305
2044.000000	9.526966
2043.000000	9.529854
2042.000000	9.532266
2041.000000	9.535056
2040.000000	9.538785
2039.000000	9.543281
2038.000000	9.548002
2037.000000	9.552507
2036.000000	9.556596
2035.000000	9.560300
2034.000000	9.563779
2033.000000	9.567026
2032.000000	9.569707
2031.000000	9.571604
2030.000000	9.573200
2029.000000	9.575495
2028.000000	9.579099
2027.000000	9.583699
2026.000000	9.588447
2025.000000	9.592690
2024.000000	9.596279
2023.000000	9.599407
2022.000000	9.602294
2021.000000	9.605021
2020.000000	9.607588
2019.000000	9.610115
2018.000000	9.612863
2017.000000	9.615985
2016.000000	9.619391
2015.000000	9.622951
2014.000000	9.626683
2013.000000	9.630573
2012.000000	9.634408
2011.000000	9.637989
2010.000000	9.641403
2009.000000	9.644836
2008.000000	9.648201
2007.000000	9.651210
2006.000000	9.653752
2005.000000	9.656010
2004.000000	9.658246
2003.000000	9.660677
2002.000000	9.663465
2001.000000	9.666573
2000.000000	9.669642
1999.000000	9.672250
1998.000000	9.674296
1997.000000	9.675938
1996.000000	9.677210
1995.000000	9.677996
1994.000000	9.678434
1993.000000	9.679115
1992.000000	9.680694
1991.000000	9.683362
1990.000000	9.686711
1989.000000	9.690014
1988.000000	9.692655
1987.000000	9.694477
1986.000000	9.695835
1985.000000	9.697253
1984.000000	9.698968
1983.000000	9.700788
1982.000000	9.702347
1981.000000	9.703423
1980.000000	9.704034
1979.000000	9.704358
1978.000000	9.704601
1977.000000	9.704901
1976.000000	9.705280
1975.000000	9.705693
1974.000000	9.706124
1973.000000	9.706606
1972.000000	9.707109
1971.000000	9.707419
1970.000000	9.707256
1969.000000	9.706646
1968.000000	9.706078
1967.000000	9.706069
1966.000000	9.706587
1965.000000	9.707075
1964.000000	9.706982
1963.000000	9.705928
1962.000000	9.703470
1961.000000	9.699484
1960.000000	9.695172
1959.000000	9.692976
1958.000000	9.694572
1957.000000	9.699065
1956.000000	9.703782
1955.000000	9.706738
1954.000000	9.707783
1953.000000	9.707654
1952.000000	9.706895
1951.000000	9.705888
1950.000000	9.705094
1949.000000	9.704705
1948.000000	9.704426
1947.000000	9.703798
1946.000000	9.702455
1945.000000	9.700160
1944.000000	9.697236
1943.000000	9.695003
1942.000000	9.694999
1941.000000	9.697352
1940.000000	9.700432
1939.000000	9.702400
1938.000000	9.702669
1937.000000	9.701675
1936.000000	9.699941
1935.000000	9.697833
1934.000000	9.695709
1933.000000	9.693778
1932.000000	9.692011
1931.000000	9.690440
1930.000000	9.689250
1929.000000	9.688367
1928.000000	9.687310
1927.000000	9.685602
1926.000000	9.683073
1925.000000	9.679842
1924.000000	9.676451
1923.000000	9.673732
1922.000000	9.671734
1921.000000	9.669019
1920.000000	9.664299
1919.000000	9.658913
1918.000000	9.656209
1917.000000	9.657727
1916.000000	9.661171
1915.000000	9.663005
1914.000000	9.662016
1913.000000	9.659380
1912.000000	9.656316
1911.000000	9.653144
1910.000000	9.650039
1909.000000	9.647235
1908.000000	9.644520
1907.000000	9.641575
1906.000000	9.638757
1905.000000	9.636665
1904.000000	9.635025
1903.000000	9.632868
1902.000000	9.629769
1901.000000	9.626216
1900.000000	9.622771
1899.000000	9.619507
1898.000000	9.616313
1897.000000	9.613247
1896.000000	9.610542
1895.000000	9.608412
1894.000000	9.606589
1893.000000	9.604035
1892.000000	9.599890
1891.000000	9.595080
1890.000000	9.592069
1889.000000	9.592242
1888.000000	9.594231
1887.000000	9.595621
1886.000000	9.595518
1885.000000	9.594505
1884.000000	9.592901
1883.000000	9.590520
1882.000000	9.587781
1881.000000	9.585657
1880.000000	9.584414
1879.000000	9.583372
1878.000000	9.581916
1877.000000	9.579982
1876.000000	9.577696
1875.000000	9.575173
1874.000000	9.572275
1873.000000	9.567882
1872.000000	9.560255
1871.000000	9.549490
1870.000000	9.539147
1869.000000	9.533805
1868.000000	9.534837
1867.000000	9.539595
1866.000000	9.544528
1865.000000	9.547755
1864.000000	9.548783
1863.000000	9.547550
1862.000000	9.544516
1861.000000	9.540666
1860.000000	9.536789
1859.000000	9.533245
1858.000000	9.530397
1857.000000	9.528362
1856.000000	9.526354
1855.000000	9.523335
1854.000000	9.519381
1853.000000	9.515395
1852.000000	9.511564
1851.000000	9.507280
1850.000000	9.502416
1849.000000	9.496920
1848.000000	9.489002
1847.000000	9.476117
1846.000000	9.459302
1845.000000	9.444963
1844.000000	9.440102
1843.000000	9.445691
1842.000000	9.455848
1841.000000	9.463395
1840.000000	9.465254
1839.000000	9.462764
1838.000000	9.458514
1837.000000	9.453978
1836.000000	9.449450
1835.000000	9.444585
1834.000000	9.438245
1833.000000	9.428832
1832.000000	9.416334
1831.000000	9.404012
1830.000000	9.396342
1829.000000	9.394327
1828.000000	9.394045
1827.000000	9.391102
1826.000000	9.385573
1825.000000	9.381028
1824.000000	9.379447
1823.000000	9.379067
1822.000000	9.377168
1821.000000	9.372993
1820.000000	9.367425
1819.000000	9.361456
1818.000000	9.355810
1817.000000	9.350917
1816.000000	9.346310
1815.000000	9.340688
1814.000000	9.333203
1813.000000	9.324309
1812.000000	9.315220
1811.000000	9.307122
1810.000000	9.300830
1809.000000	9.296307
1808.000000	9.292334
1807.000000	9.287341
1806.000000	9.280608
1805.000000	9.272075
1804.000000	9.261524
1803.000000	9.249227
1802.000000	9.237117
1801.000000	9.227784
1800.000000	9.222048
1799.000000	9.218487
1798.000000	9.214915
1797.000000	9.208752
1796.000000	9.196674
1795.000000	9.176982
1794.000000	9.153490
1793.000000	9.134761
1792.000000	9.127423
1791.000000	9.130652
1790.000000	9.137674
1789.000000	9.141418
1788.000000	9.138363
1787.000000	9.129151
1786.000000	9.117358
1785.000000	9.106740
1784.000000	9.098255
1783.000000	9.090103
1782.000000	9.080999
1781.000000	9.072055
1780.000000	9.064752
1779.000000	9.058556
1778.000000	9.051374
1777.000000	9.040674
1776.000000	9.023518
1775.000000	8.998431
1774.000000	8.969702
1773.000000	8.947515
1772.000000	8.939882
1771.000000	8.944608
1770.000000	8.951996
1769.000000	8.955340
1768.000000	8.955803
1767.000000	8.956694
1766.000000	8.956539
1765.000000	8.950364
1764.000000	8.936481
1763.000000	8.919638
1762.000000	8.906964
1761.000000	8.901354
1760.000000	8.899090
1759.000000	8.894104
1758.000000	8.884508
1757.000000	8.873889
1756.000000	8.865363
1755.000000	8.855947
1754.000000	8.839478
1753.000000	8.815133
1752.000000	8.790368
1751.000000	8.774036
1750.000000	8.768274
1749.000000	8.768328
1748.000000	8.768515
1747.000000	8.766224
1746.000000	8.761204
1745.000000	8.753567
1744.000000	8.743036
1743.000000	8.729007
1742.000000	8.711673
1741.000000	8.694156
1740.000000	8.681946
1739.000000	8.676651
1738.000000	8.670160
1737.000000	8.649870
1736.000000	8.613544
1735.000000	8.576723
1734.000000	8.560693
1733.000000	8.572488
1732.000000	8.599533
1731.000000	8.623657
1730.000000	8.636559
1729.000000	8.640955
1728.000000	8.641758
1727.000000	8.640627
1726.000000	8.637408
1725.000000	8.632535
1724.000000	8.626860
1723.000000	8.620131
1722.000000	8.609413
1721.000000	8.589258
1720.000000	8.556673
1719.000000	8.518342
1718.000000	8.490051
1717.000000	8.484588
1716.000000	8.500386
1715.000000	8.524541
1714.000000	8.545344
1713.000000	8.558570
1712.000000	8.563946
1711.000000	8.561796
1710.000000	8.553972
1709.000000	8.543237
1708.000000	8.530474
1707.000000	8.516187
1706.000000	8.504072
1705.000000	8.496674
1704.000000	8.486822
1703.000000	8.462208
1702.000000	8.423382
1701.000000	8.389610
1700.000000	8.378689
1699.000000	8.385595
1698.000000	8.390464
1697.000000	8.385848
1696.000000	8.385780
1695.000000	8.405530
1694.000000	8.440845
1693.000000	8.472568
1692.000000	8.487174
1691.000000	8.486933
1690.000000	8.481081
1689.000000	8.471740
1688.000000	8.451112
1687.000000	8.413000
1686.000000	8.366427
1685.000000	8.334522
1684.000000	8.335896
1683.000000	8.367090
1682.000000	8.406332
1681.000000	8.433918
1680.000000	8.444904
1679.000000	8.443157
1678.000000	8.431484
1677.000000	8.412821
1676.000000	8.395525
1675.000000	8.388897
1674.000000	8.392717
1673.000000	8.396509
1672.000000	8.391145
1671.000000	8.378491
1670.000000	8.368435
1669.000000	8.368693
1668.000000	8.378486
1667.000000	8.389848
1666.000000	8.393581
1665.000000	8.385923
1664.000000	8.371785
1663.000000	8.360975
1662.000000	8.359566
1661.000000	8.365024
1660.000000	8.370311
1659.000000	8.370455
1658.000000	8.361881
1657.000000	8.337047
1656.000000	8.287579
1655.000000	8.218735
1654.000000	8.157446
1653.000000	8.136531
1652.000000	8.165624
1651.000000	8.219930
1650.000000	8.261061
1649.000000	8.268661
1648.000000	8.251660
1647.000000	8.233356
1646.000000	8.230298
1645.000000	8.243371
1644.000000	8.262340
1643.000000	8.275701
1642.000000	8.278353
1641.000000	8.272140
1640.000000	8.259469
1639.000000	8.238362
1638.000000	8.207015
1637.000000	8.172605
1636.000000	8.150459
1635.000000	8.151161
1634.000000	8.170084
1633.000000	8.191613
1632.000000	8.202325
1631.000000	8.198919
1630.000000	8.186078
1629.000000	8.170244
1628.000000	8.155058
1627.000000	8.139806
1626.000000	8.121182
1625.000000	8.097824
1624.000000	8.073477
1623.000000	8.054235
1622.000000	8.041558
1621.000000	8.028657
1620.000000	8.005477
1619.000000	7.968834
1618.000000	7.927899
1617.000000	7.898112
1616.000000	7.887647
1615.000000	7.889547
1614.000000	7.888171
1613.000000	7.873256
1612.000000	7.846842
1611.000000	7.817821
1610.000000	7.793206
1609.000000	7.775617
1608.000000	7.765689
1607.000000	7.763275
1606.000000	7.766783
1605.000000	7.773833
1604.000000	7.782981
1603.000000	7.793746
1602.000000	7.805287
1601.000000	7.816349
1600.000000	7.826325
1599.000000	7.835264
1598.000000	7.842986
1597.000000	7.849202
1596.000000	7.854375
1595.000000	7.859428
1594.000000	7.864528
1593.000000	7.868897
1592.000000	7.871769
1591.000000	7.872913
1590.000000	7.872356
1589.000000	7.870326
1588.000000	7.867484
1587.000000	7.864607
1586.000000	7.861914
1585.000000	7.859051
1584.000000	7.855862
1583.000000	7.852961
1582.000000	7.850954
1581.000000	7.848154
1580.000000	7.839123
1579.000000	7.818062
1578.000000	7.786843
1577.000000	7.759082
1576.000000	7.751602
1575.000000	7.768547
1574.000000	7.795426
1573.000000	7.811502
1572.000000	7.807887
1571.000000	7.792513
1570.000000	7.779321
1569.000000	7.775381
1568.000000	7.777711
1567.000000	7.779050
1566.000000	7.774765
1565.000000	7.764491
1564.000000	7.747461
1563.000000	7.717815
1562.000000	7.668998
1561.000000	7.606340
1560.000000	7.552126
1559.000000	7.531293
1558.000000	7.549740
1557.000000	7.590098
1556.000000	7.629924
1555.000000	7.660162
1554.000000	7.684414
1553.000000	7.706388
1552.000000	7.724560
1551.000000	7.737355
1550.000000	7.746870
1549.000000	7.755382
1548.000000	7.761707
1547.000000	7.763227
1546.000000	7.759484
1545.000000	7.751641
1544.000000	7.739391
1543.000000	7.720952
1542.000000	7.697787
1541.000000	7.679282
1540.000000	7.680277
1539.000000	7.709769
1538.000000	7.759861
1537.000000	7.808411
1536.000000	7.836483
1535.000000	7.843668
1534.000000	7.844687
1533.000000	7.852303
1532.000000	7.866566
1531.000000	7.879451
1530.000000	7.884766
1529.000000	7.881843
1528.000000	7.873747
1527.000000	7.864940
1526.000000	7.858015
1525.000000	7.849986
1524.000000	7.834506
1523.000000	7.811244
1522.000000	7.790689
1521.000000	7.784871
1520.000000	7.793784
1519.000000	7.805409
1518.000000	7.809459
1517.000000	7.806657
1516.000000	7.803157
1515.000000	7.800742
1514.000000	7.796426
1513.000000	7.788717
1512.000000	7.778677
1511.000000	7.764310
1510.000000	7.738660
1509.000000	7.697458
1508.000000	7.648224
1507.000000	7.608512
1506.000000	7.592012
1505.000000	7.595074
1504.000000	7.597125
1503.000000	7.574852
1502.000000	7.516222
1501.000000	7.422401
1500.000000	7.300637
