PE IR       SUBTECH     SPECTRUM    ASCII       PEDS        4.00        
   -1
TE110A_021_100K_2MIN.ASC
20/05/14
12:19:37.00
20/05/14
12:19:37.00
Administrator
TE110A.Thursday, May 14 2020, 004.
1000.000000
#HDR
-1
-1
#GR
cm-1
A
1.0
0.0
6000.000000
-2.000000
2501
8
1.299525
1.247331
#DATA
6000.000000	1.285136
5998.000000	1.285315
5996.000000	1.284858
5994.000000	1.284304
5992.000000	1.284226
5990.000000	1.284476
5988.000000	1.284738
5986.000000	1.284884
5984.000000	1.284819
5982.000000	1.284511
5980.000000	1.284661
5978.000000	1.285229
5976.000000	1.285602
5974.000000	1.285115
5972.000000	1.284286
5970.000000	1.283994
5968.000000	1.284407
5966.000000	1.284984
5964.000000	1.285140
5962.000000	1.284656
5960.000000	1.284159
5958.000000	1.284002
5956.000000	1.284126
5954.000000	1.284355
5952.000000	1.284627
5950.000000	1.285012
5948.000000	1.285078
5946.000000	1.284755
5944.000000	1.284353
5942.000000	1.284300
5940.000000	1.284268
5938.000000	1.284070
5936.000000	1.283851
5934.000000	1.283603
5932.000000	1.283631
5930.000000	1.283625
5928.000000	1.283792
5926.000000	1.283956
5924.000000	1.283941
5922.000000	1.283654
5920.000000	1.283340
5918.000000	1.283462
5916.000000	1.283780
5914.000000	1.284078
5912.000000	1.283854
5910.000000	1.283275
5908.000000	1.282761
5906.000000	1.282803
5904.000000	1.283261
5902.000000	1.283490
5900.000000	1.283362
5898.000000	1.283361
5896.000000	1.283385
5894.000000	1.283404
5892.000000	1.283047
5890.000000	1.282767
5888.000000	1.282684
5886.000000	1.282531
5884.000000	1.282379
5882.000000	1.282416
5880.000000	1.282546
5878.000000	1.282479
5876.000000	1.282118
5874.000000	1.282021
5872.000000	1.282022
5870.000000	1.282198
5868.000000	1.281883
5866.000000	1.281682
5864.000000	1.281848
5862.000000	1.281898
5860.000000	1.282029
5858.000000	1.282044
5856.000000	1.282008
5854.000000	1.281818
5852.000000	1.281446
5850.000000	1.281331
5848.000000	1.281523
5846.000000	1.281915
5844.000000	1.282112
5842.000000	1.282059
5840.000000	1.281896
5838.000000	1.281851
5836.000000	1.282019
5834.000000	1.282075
5832.000000	1.281825
5830.000000	1.281613
5828.000000	1.281528
5826.000000	1.281829
5824.000000	1.282127
5822.000000	1.282101
5820.000000	1.281830
5818.000000	1.281613
5816.000000	1.281622
5814.000000	1.281747
5812.000000	1.281708
5810.000000	1.281506
5808.000000	1.281255
5806.000000	1.281308
5804.000000	1.281553
5802.000000	1.281783
5800.000000	1.281585
5798.000000	1.281256
5796.000000	1.280999
5794.000000	1.280980
5792.000000	1.281132
5790.000000	1.281018
5788.000000	1.280926
5786.000000	1.280767
5784.000000	1.280803
5782.000000	1.281081
5780.000000	1.281169
5778.000000	1.280954
5776.000000	1.280557
5774.000000	1.280401
5772.000000	1.280568
5770.000000	1.280723
5768.000000	1.280892
5766.000000	1.280993
5764.000000	1.280973
5762.000000	1.280760
5760.000000	1.280754
5758.000000	1.280960
5756.000000	1.281056
5754.000000	1.280732
5752.000000	1.280249
5750.000000	1.280036
5748.000000	1.280081
5746.000000	1.280490
5744.000000	1.280599
5742.000000	1.280418
5740.000000	1.280191
5738.000000	1.280007
5736.000000	1.279948
5734.000000	1.279723
5732.000000	1.279559
5730.000000	1.279648
5728.000000	1.279820
5726.000000	1.279848
5724.000000	1.279847
5722.000000	1.280006
5720.000000	1.279970
5718.000000	1.279779
5716.000000	1.279606
5714.000000	1.279707
5712.000000	1.280120
5710.000000	1.280177
5708.000000	1.279975
5706.000000	1.279831
5704.000000	1.279541
5702.000000	1.279610
5700.000000	1.279526
5698.000000	1.279469
5696.000000	1.279347
5694.000000	1.279058
5692.000000	1.278864
5690.000000	1.278897
5688.000000	1.279200
5686.000000	1.279432
5684.000000	1.279360
5682.000000	1.279290
5680.000000	1.279146
5678.000000	1.279136
5676.000000	1.279232
5674.000000	1.279302
5672.000000	1.279113
5670.000000	1.278569
5668.000000	1.278504
5666.000000	1.278727
5664.000000	1.278714
5662.000000	1.278648
5660.000000	1.278625
5658.000000	1.278837
5656.000000	1.278900
5654.000000	1.278899
5652.000000	1.278946
5650.000000	1.278694
5648.000000	1.278666
5646.000000	1.278775
5644.000000	1.278800
5642.000000	1.278501
5640.000000	1.278245
5638.000000	1.278212
5636.000000	1.278318
5634.000000	1.278558
5632.000000	1.278717
5630.000000	1.278885
5628.000000	1.278798
5626.000000	1.278569
5624.000000	1.278334
5622.000000	1.278140
5620.000000	1.278145
5618.000000	1.278199
5616.000000	1.278164
5614.000000	1.278099
5612.000000	1.278129
5610.000000	1.278289
5608.000000	1.278583
5606.000000	1.278582
5604.000000	1.278424
5602.000000	1.277924
5600.000000	1.277345
5598.000000	1.277060
5596.000000	1.277216
5594.000000	1.277499
5592.000000	1.277373
5590.000000	1.277037
5588.000000	1.276954
5586.000000	1.277135
5584.000000	1.277565
5582.000000	1.277960
5580.000000	1.277999
5578.000000	1.277772
5576.000000	1.277326
5574.000000	1.277285
5572.000000	1.277317
5570.000000	1.277228
5568.000000	1.276955
5566.000000	1.276832
5564.000000	1.276896
5562.000000	1.276981
5560.000000	1.277011
5558.000000	1.276905
5556.000000	1.276762
5554.000000	1.276639
5552.000000	1.276708
5550.000000	1.276755
5548.000000	1.276643
5546.000000	1.276644
5544.000000	1.276874
5542.000000	1.277132
5540.000000	1.277216
5538.000000	1.277002
5536.000000	1.276823
5534.000000	1.276750
5532.000000	1.276745
5530.000000	1.276848
5528.000000	1.276882
5526.000000	1.276789
5524.000000	1.276530
5522.000000	1.276341
5520.000000	1.276241
5518.000000	1.276136
5516.000000	1.276082
5514.000000	1.276278
5512.000000	1.276523
5510.000000	1.276613
5508.000000	1.276549
5506.000000	1.276431
5504.000000	1.276318
5502.000000	1.276183
5500.000000	1.276277
5498.000000	1.276399
5496.000000	1.276319
5494.000000	1.276018
5492.000000	1.275732
5490.000000	1.275666
5488.000000	1.275828
5486.000000	1.276026
5484.000000	1.276122
5482.000000	1.276170
5480.000000	1.275958
5478.000000	1.275623
5476.000000	1.275364
5474.000000	1.275349
5472.000000	1.275476
5470.000000	1.275384
5468.000000	1.275446
5466.000000	1.275550
5464.000000	1.275507
5462.000000	1.275221
5460.000000	1.274941
5458.000000	1.274992
5456.000000	1.275284
5454.000000	1.275270
5452.000000	1.274923
5450.000000	1.274482
5448.000000	1.274521
5446.000000	1.274784
5444.000000	1.274923
5442.000000	1.274908
5440.000000	1.274898
5438.000000	1.274967
5436.000000	1.275017
5434.000000	1.275043
5432.000000	1.274913
5430.000000	1.274800
5428.000000	1.274937
5426.000000	1.275031
5424.000000	1.275112
5422.000000	1.275086
5420.000000	1.274984
5418.000000	1.274536
5416.000000	1.274003
5414.000000	1.273995
5412.000000	1.274377
5410.000000	1.274965
5408.000000	1.275305
5406.000000	1.275312
5404.000000	1.275076
5402.000000	1.274930
5400.000000	1.274719
5398.000000	1.274245
5396.000000	1.273931
5394.000000	1.274123
5392.000000	1.274505
5390.000000	1.274428
5388.000000	1.274066
5386.000000	1.273982
5384.000000	1.274169
5382.000000	1.274199
5380.000000	1.273863
5378.000000	1.273606
5376.000000	1.273824
5374.000000	1.274355
5372.000000	1.274629
5370.000000	1.274470
5368.000000	1.274133
5366.000000	1.273998
5364.000000	1.274190
5362.000000	1.274445
5360.000000	1.274402
5358.000000	1.273971
5356.000000	1.273416
5354.000000	1.273337
5352.000000	1.273602
5350.000000	1.273680
5348.000000	1.273161
5346.000000	1.272900
5344.000000	1.273377
5342.000000	1.273748
5340.000000	1.273533
5338.000000	1.273388
5336.000000	1.273770
5334.000000	1.273954
5332.000000	1.273649
5330.000000	1.273430
5328.000000	1.273575
5326.000000	1.273920
5324.000000	1.274076
5322.000000	1.274155
5320.000000	1.274028
5318.000000	1.273682
5316.000000	1.273370
5314.000000	1.273387
5312.000000	1.273481
5310.000000	1.273340
5308.000000	1.273234
5306.000000	1.273356
5304.000000	1.273451
5302.000000	1.273292
5300.000000	1.273236
5298.000000	1.273333
5296.000000	1.273388
5294.000000	1.273082
5292.000000	1.272785
5290.000000	1.272783
5288.000000	1.272881
5286.000000	1.272780
5284.000000	1.272800
5282.000000	1.273014
5280.000000	1.273081
5278.000000	1.272907
5276.000000	1.272779
5274.000000	1.272836
5272.000000	1.272856
5270.000000	1.272914
5268.000000	1.272787
5266.000000	1.272461
5264.000000	1.272324
5262.000000	1.272582
5260.000000	1.272798
5258.000000	1.272591
5256.000000	1.272471
5254.000000	1.272652
5252.000000	1.272686
5250.000000	1.272458
5248.000000	1.272447
5246.000000	1.272801
5244.000000	1.273020
5242.000000	1.272957
5240.000000	1.272849
5238.000000	1.272794
5236.000000	1.272740
5234.000000	1.272708
5232.000000	1.272825
5230.000000	1.272753
5228.000000	1.272476
5226.000000	1.272399
5224.000000	1.272581
5222.000000	1.272614
5220.000000	1.272386
5218.000000	1.272415
5216.000000	1.272758
5214.000000	1.272922
5212.000000	1.272686
5210.000000	1.272252
5208.000000	1.272001
5206.000000	1.272150
5204.000000	1.272466
5202.000000	1.272576
5200.000000	1.272418
5198.000000	1.272335
5196.000000	1.272445
5194.000000	1.272546
5192.000000	1.272449
5190.000000	1.272221
5188.000000	1.272079
5186.000000	1.272023
5184.000000	1.272014
5182.000000	1.272072
5180.000000	1.272132
5178.000000	1.272123
5176.000000	1.272046
5174.000000	1.272062
5172.000000	1.272197
5170.000000	1.272288
5168.000000	1.272113
5166.000000	1.271908
5164.000000	1.271880
5162.000000	1.271809
5160.000000	1.271569
5158.000000	1.271560
5156.000000	1.271857
5154.000000	1.272034
5152.000000	1.272066
5150.000000	1.272087
5148.000000	1.272044
5146.000000	1.271883
5144.000000	1.271839
5142.000000	1.271971
5140.000000	1.272104
5138.000000	1.272030
5136.000000	1.271978
5134.000000	1.272097
5132.000000	1.272198
5130.000000	1.272166
5128.000000	1.272152
5126.000000	1.272141
5124.000000	1.272042
5122.000000	1.271894
5120.000000	1.271762
5118.000000	1.271710
5116.000000	1.271868
5114.000000	1.272006
5112.000000	1.271928
5110.000000	1.271754
5108.000000	1.271732
5106.000000	1.271726
5104.000000	1.271768
5102.000000	1.271796
5100.000000	1.271791
5098.000000	1.271731
5096.000000	1.271819
5094.000000	1.271978
5092.000000	1.272083
5090.000000	1.272003
5088.000000	1.271905
5086.000000	1.271943
5084.000000	1.271933
5082.000000	1.271782
5080.000000	1.271687
5078.000000	1.271792
5076.000000	1.271898
5074.000000	1.271788
5072.000000	1.271573
5070.000000	1.271440
5068.000000	1.271657
5066.000000	1.272015
5064.000000	1.272068
5062.000000	1.271857
5060.000000	1.271747
5058.000000	1.271705
5056.000000	1.271563
5054.000000	1.271542
5052.000000	1.271696
5050.000000	1.271795
5048.000000	1.271822
5046.000000	1.271930
5044.000000	1.271925
5042.000000	1.271880
5040.000000	1.271908
5038.000000	1.271984
5036.000000	1.271910
5034.000000	1.271825
5032.000000	1.271798
5030.000000	1.271785
5028.000000	1.271906
5026.000000	1.272070
5024.000000	1.271959
5022.000000	1.271702
5020.000000	1.271639
5018.000000	1.271781
5016.000000	1.271803
5014.000000	1.271791
5012.000000	1.271954
5010.000000	1.272036
5008.000000	1.271891
5006.000000	1.271724
5004.000000	1.271816
5002.000000	1.271908
5000.000000	1.271802
4998.000000	1.271719
4996.000000	1.271797
4994.000000	1.271819
4992.000000	1.271708
4990.000000	1.271557
4988.000000	1.271397
4986.000000	1.271247
4984.000000	1.271299
4982.000000	1.271410
4980.000000	1.271425
4978.000000	1.271461
4976.000000	1.271622
4974.000000	1.271744
4972.000000	1.271616
4970.000000	1.271424
4968.000000	1.271437
4966.000000	1.271676
4964.000000	1.271831
4962.000000	1.271841
4960.000000	1.271765
4958.000000	1.271615
4956.000000	1.271561
4954.000000	1.271619
4952.000000	1.271678
4950.000000	1.271586
4948.000000	1.271643
4946.000000	1.271752
4944.000000	1.271747
4942.000000	1.271600
4940.000000	1.271478
4938.000000	1.271347
4936.000000	1.271295
4934.000000	1.271259
4932.000000	1.271218
4930.000000	1.271232
4928.000000	1.271419
4926.000000	1.271520
4924.000000	1.271364
4922.000000	1.271229
4920.000000	1.271341
4918.000000	1.271492
4916.000000	1.271406
4914.000000	1.271353
4912.000000	1.271499
4910.000000	1.271660
4908.000000	1.271599
4906.000000	1.271534
4904.000000	1.271643
4902.000000	1.271768
4900.000000	1.271757
4898.000000	1.271622
4896.000000	1.271471
4894.000000	1.271293
4892.000000	1.271289
4890.000000	1.271389
4888.000000	1.271318
4886.000000	1.271208
4884.000000	1.271282
4882.000000	1.271325
4880.000000	1.271252
4878.000000	1.271420
4876.000000	1.271713
4874.000000	1.271720
4872.000000	1.271549
4870.000000	1.271518
4868.000000	1.271562
4866.000000	1.271488
4864.000000	1.271411
4862.000000	1.271439
4860.000000	1.271523
4858.000000	1.271534
4856.000000	1.271405
4854.000000	1.271256
4852.000000	1.271201
4850.000000	1.271324
4848.000000	1.271492
4846.000000	1.271538
4844.000000	1.271457
4842.000000	1.271431
4840.000000	1.271550
4838.000000	1.271584
4836.000000	1.271563
4834.000000	1.271550
4832.000000	1.271582
4830.000000	1.271600
4828.000000	1.271611
4826.000000	1.271531
4824.000000	1.271464
4822.000000	1.271523
4820.000000	1.271635
4818.000000	1.271557
4816.000000	1.271294
4814.000000	1.271130
4812.000000	1.271200
4810.000000	1.271259
4808.000000	1.271205
4806.000000	1.271146
4804.000000	1.271153
4802.000000	1.271172
4800.000000	1.271194
4798.000000	1.271227
4796.000000	1.271210
4794.000000	1.271249
4792.000000	1.271386
4790.000000	1.271469
4788.000000	1.271339
4786.000000	1.271210
4784.000000	1.271184
4782.000000	1.271146
4780.000000	1.271111
4778.000000	1.271188
4776.000000	1.271291
4774.000000	1.271282
4772.000000	1.271220
4770.000000	1.271156
4768.000000	1.271123
4766.000000	1.271139
4764.000000	1.271174
4762.000000	1.271179
4760.000000	1.271229
4758.000000	1.271286
4756.000000	1.271212
4754.000000	1.271109
4752.000000	1.271121
4750.000000	1.271192
4748.000000	1.271102
4746.000000	1.270905
4744.000000	1.270854
4742.000000	1.270924
4740.000000	1.270968
4738.000000	1.271109
4736.000000	1.271293
4734.000000	1.271255
4732.000000	1.271063
4730.000000	1.271005
4728.000000	1.270991
4726.000000	1.270909
4724.000000	1.270804
4722.000000	1.270719
4720.000000	1.270694
4718.000000	1.270743
4716.000000	1.270830
4714.000000	1.270852
4712.000000	1.270833
4710.000000	1.270778
4708.000000	1.270663
4706.000000	1.270568
4704.000000	1.270629
4702.000000	1.270757
4700.000000	1.270790
4698.000000	1.270796
4696.000000	1.270822
4694.000000	1.270803
4692.000000	1.270748
4690.000000	1.270738
4688.000000	1.270818
4686.000000	1.270766
4684.000000	1.270583
4682.000000	1.270539
4680.000000	1.270661
4678.000000	1.270683
4676.000000	1.270707
4674.000000	1.270723
4672.000000	1.270605
4670.000000	1.270571
4668.000000	1.270713
4666.000000	1.270774
4664.000000	1.270788
4662.000000	1.270876
4660.000000	1.270887
4658.000000	1.270796
4656.000000	1.270764
4654.000000	1.270833
4652.000000	1.270869
4650.000000	1.270770
4648.000000	1.270629
4646.000000	1.270659
4644.000000	1.270839
4642.000000	1.270918
4640.000000	1.270904
4638.000000	1.270898
4636.000000	1.270873
4634.000000	1.270758
4632.000000	1.270629
4630.000000	1.270631
4628.000000	1.270758
4626.000000	1.270773
4624.000000	1.270631
4622.000000	1.270584
4620.000000	1.270588
4618.000000	1.270549
4616.000000	1.270512
4614.000000	1.270535
4612.000000	1.270550
4610.000000	1.270595
4608.000000	1.270650
4606.000000	1.270618
4604.000000	1.270459
4602.000000	1.270355
4600.000000	1.270391
4598.000000	1.270434
4596.000000	1.270415
4594.000000	1.270441
4592.000000	1.270510
4590.000000	1.270572
4588.000000	1.270616
4586.000000	1.270681
4584.000000	1.270636
4582.000000	1.270545
4580.000000	1.270582
4578.000000	1.270675
4576.000000	1.270635
4574.000000	1.270570
4572.000000	1.270566
4570.000000	1.270566
4568.000000	1.270572
4566.000000	1.270587
4564.000000	1.270636
4562.000000	1.270723
4560.000000	1.270711
4558.000000	1.270557
4556.000000	1.270412
4554.000000	1.270431
4552.000000	1.270577
4550.000000	1.270751
4548.000000	1.270773
4546.000000	1.270637
4544.000000	1.270530
4542.000000	1.270581
4540.000000	1.270604
4538.000000	1.270546
4536.000000	1.270502
4534.000000	1.270513
4532.000000	1.270486
4530.000000	1.270386
4528.000000	1.270300
4526.000000	1.270305
4524.000000	1.270317
4522.000000	1.270310
4520.000000	1.270373
4518.000000	1.270460
4516.000000	1.270501
4514.000000	1.270501
4512.000000	1.270449
4510.000000	1.270345
4508.000000	1.270242
4506.000000	1.270212
4504.000000	1.270220
4502.000000	1.270143
4500.000000	1.270053
4498.000000	1.270135
4496.000000	1.270276
4494.000000	1.270265
4492.000000	1.270195
4490.000000	1.270183
4488.000000	1.270206
4486.000000	1.270195
4484.000000	1.270138
4482.000000	1.270067
4480.000000	1.270034
4478.000000	1.270080
4476.000000	1.270195
4474.000000	1.270304
4472.000000	1.270247
4470.000000	1.270166
4468.000000	1.270208
4466.000000	1.270290
4464.000000	1.270202
4462.000000	1.270052
4460.000000	1.269952
4458.000000	1.269971
4456.000000	1.270108
4454.000000	1.270323
4452.000000	1.270403
4450.000000	1.270341
4448.000000	1.270226
4446.000000	1.270090
4444.000000	1.270016
4442.000000	1.270060
4440.000000	1.270050
4438.000000	1.270018
4436.000000	1.270013
4434.000000	1.270014
4432.000000	1.270017
4430.000000	1.270027
4428.000000	1.269994
4426.000000	1.270028
4424.000000	1.270014
4422.000000	1.269883
4420.000000	1.269788
4418.000000	1.269770
4416.000000	1.269766
4414.000000	1.269837
4412.000000	1.269843
4410.000000	1.269765
4408.000000	1.269817
4406.000000	1.269908
4404.000000	1.269833
4402.000000	1.269712
4400.000000	1.269667
4398.000000	1.269710
4396.000000	1.269729
4394.000000	1.269735
4392.000000	1.269756
4390.000000	1.269762
4388.000000	1.269719
4386.000000	1.269761
4384.000000	1.269866
4382.000000	1.269944
4380.000000	1.269876
4378.000000	1.269712
4376.000000	1.269595
4374.000000	1.269631
4372.000000	1.269765
4370.000000	1.269887
4368.000000	1.269905
4366.000000	1.269848
4364.000000	1.269796
4362.000000	1.269745
4360.000000	1.269643
4358.000000	1.269582
4356.000000	1.269601
4354.000000	1.269609
4352.000000	1.269677
4350.000000	1.269772
4348.000000	1.269717
4346.000000	1.269576
4344.000000	1.269502
4342.000000	1.269464
4340.000000	1.269432
4338.000000	1.269434
4336.000000	1.269472
4334.000000	1.269473
4332.000000	1.269403
4330.000000	1.269382
4328.000000	1.269335
4326.000000	1.269224
4324.000000	1.269197
4322.000000	1.269266
4320.000000	1.269249
4318.000000	1.269246
4316.000000	1.269331
4314.000000	1.269400
4312.000000	1.269365
4310.000000	1.269247
4308.000000	1.269098
4306.000000	1.269035
4304.000000	1.269071
4302.000000	1.269135
4300.000000	1.269152
4298.000000	1.269125
4296.000000	1.269048
4294.000000	1.268990
4292.000000	1.269051
4290.000000	1.269130
4288.000000	1.269102
4286.000000	1.269132
4284.000000	1.269155
4282.000000	1.269075
4280.000000	1.268982
4278.000000	1.268950
4276.000000	1.268913
4274.000000	1.268845
4272.000000	1.268782
4270.000000	1.268807
4268.000000	1.268917
4266.000000	1.268958
4264.000000	1.268859
4262.000000	1.268850
4260.000000	1.268963
4258.000000	1.268995
4256.000000	1.268878
4254.000000	1.268720
4252.000000	1.268681
4250.000000	1.268765
4248.000000	1.268780
4246.000000	1.268751
4244.000000	1.268679
4242.000000	1.268525
4240.000000	1.268421
4238.000000	1.268432
4236.000000	1.268441
4234.000000	1.268455
4232.000000	1.268435
4230.000000	1.268371
4228.000000	1.268311
4226.000000	1.268301
4224.000000	1.268315
4222.000000	1.268269
4220.000000	1.268204
4218.000000	1.268236
4216.000000	1.268260
4214.000000	1.268267
4212.000000	1.268226
4210.000000	1.268061
4208.000000	1.267951
4206.000000	1.267938
4204.000000	1.267910
4202.000000	1.267972
4200.000000	1.268066
4198.000000	1.268038
4196.000000	1.267962
4194.000000	1.267947
4192.000000	1.267955
4190.000000	1.267880
4188.000000	1.267728
4186.000000	1.267699
4184.000000	1.267785
4182.000000	1.267798
4180.000000	1.267792
4178.000000	1.267852
4176.000000	1.267800
4174.000000	1.267672
4172.000000	1.267645
4170.000000	1.267738
4168.000000	1.267758
4166.000000	1.267646
4164.000000	1.267533
4162.000000	1.267521
4160.000000	1.267525
4158.000000	1.267483
4156.000000	1.267416
4154.000000	1.267405
4152.000000	1.267437
4150.000000	1.267464
4148.000000	1.267413
4146.000000	1.267305
4144.000000	1.267233
4142.000000	1.267235
4140.000000	1.267201
4138.000000	1.267114
4136.000000	1.267106
4134.000000	1.267102
4132.000000	1.266980
4130.000000	1.266857
4128.000000	1.266741
4126.000000	1.266648
4124.000000	1.266636
4122.000000	1.266698
4120.000000	1.266766
4118.000000	1.266757
4116.000000	1.266667
4114.000000	1.266644
4112.000000	1.266652
4110.000000	1.266569
4108.000000	1.266498
4106.000000	1.266554
4104.000000	1.266573
4102.000000	1.266493
4100.000000	1.266433
4098.000000	1.266469
4096.000000	1.266492
4094.000000	1.266520
4092.000000	1.266508
4090.000000	1.266385
4088.000000	1.266298
4086.000000	1.266324
4084.000000	1.266383
4082.000000	1.266377
4080.000000	1.266250
4078.000000	1.266095
4076.000000	1.265961
4074.000000	1.265977
4072.000000	1.266091
4070.000000	1.266108
4068.000000	1.266030
4066.000000	1.265939
4064.000000	1.265858
4062.000000	1.265839
4060.000000	1.265839
4058.000000	1.265802
4056.000000	1.265661
4054.000000	1.265529
4052.000000	1.265543
4050.000000	1.265582
4048.000000	1.265553
4046.000000	1.265512
4044.000000	1.265463
4042.000000	1.265463
4040.000000	1.265407
4038.000000	1.265311
4036.000000	1.265320
4034.000000	1.265333
4032.000000	1.265242
4030.000000	1.265203
4028.000000	1.265261
4026.000000	1.265208
4024.000000	1.265019
4022.000000	1.264922
4020.000000	1.264953
4018.000000	1.264995
4016.000000	1.264965
4014.000000	1.264886
4012.000000	1.264791
4010.000000	1.264758
4008.000000	1.264800
4006.000000	1.264749
4004.000000	1.264603
4002.000000	1.264566
4000.000000	1.264564
3998.000000	1.264472
3996.000000	1.264368
3994.000000	1.264304
3992.000000	1.264255
3990.000000	1.264203
3988.000000	1.264185
3986.000000	1.264252
3984.000000	1.264270
3982.000000	1.264235
3980.000000	1.264186
3978.000000	1.264102
3976.000000	1.264055
3974.000000	1.264077
3972.000000	1.264065
3970.000000	1.264002
3968.000000	1.263964
3966.000000	1.263857
3964.000000	1.263612
3962.000000	1.263553
3960.000000	1.263687
3958.000000	1.263681
3956.000000	1.263547
3954.000000	1.263433
3952.000000	1.263217
3950.000000	1.263020
3948.000000	1.263120
3946.000000	1.263112
3944.000000	1.262885
3942.000000	1.263135
3940.000000	1.263394
3938.000000	1.263126
3936.000000	1.262588
3934.000000	1.262054
3932.000000	1.262211
3930.000000	1.262834
3928.000000	1.262776
3926.000000	1.262354
3924.000000	1.262269
3922.000000	1.261970
3920.000000	1.261346
3918.000000	1.261529
3916.000000	1.262621
3914.000000	1.263156
3912.000000	1.262731
3910.000000	1.262141
3908.000000	1.260917
3906.000000	1.259086
3904.000000	1.258615
3902.000000	1.259819
3900.000000	1.261435
3898.000000	1.262875
3896.000000	1.262733
3894.000000	1.260735
3892.000000	1.260041
3890.000000	1.261107
3888.000000	1.260187
3886.000000	1.259441
3884.000000	1.261004
3882.000000	1.261067
3880.000000	1.260986
3878.000000	1.261738
3876.000000	1.260736
3874.000000	1.259230
3872.000000	1.257827
3870.000000	1.258385
3868.000000	1.260504
3866.000000	1.260173
3864.000000	1.259925
3862.000000	1.261288
3860.000000	1.261296
3858.000000	1.257471
3856.000000	1.250596
3854.000000	1.250728
3852.000000	1.260057
3850.000000	1.265086
3848.000000	1.262886
3846.000000	1.260194
3844.000000	1.258949
3842.000000	1.257634
3840.000000	1.255286
3838.000000	1.255848
3836.000000	1.259686
3834.000000	1.260964
3832.000000	1.260413
3830.000000	1.260661
3828.000000	1.260386
3826.000000	1.259534
3824.000000	1.257360
3822.000000	1.256125
3820.000000	1.257710
3818.000000	1.257150
3816.000000	1.257581
3814.000000	1.261607
3812.000000	1.261892
3810.000000	1.258250
3808.000000	1.256425
3806.000000	1.257925
3804.000000	1.256990
3802.000000	1.255677
3800.000000	1.259273
3798.000000	1.261036
3796.000000	1.260208
3794.000000	1.260587
3792.000000	1.260558
3790.000000	1.260135
3788.000000	1.259827
3786.000000	1.259524
3784.000000	1.259403
3782.000000	1.258881
3780.000000	1.258691
3778.000000	1.259751
3776.000000	1.260276
3774.000000	1.259306
3772.000000	1.257803
3770.000000	1.257703
3768.000000	1.258725
3766.000000	1.259142
3764.000000	1.259235
3762.000000	1.258355
3760.000000	1.257488
3758.000000	1.257996
3756.000000	1.256669
3754.000000	1.252212
3752.000000	1.250275
3750.000000	1.253858
3748.000000	1.255112
3746.000000	1.251426
3744.000000	1.254322
3742.000000	1.260574
3740.000000	1.258300
3738.000000	1.253516
3736.000000	1.253274
3734.000000	1.255312
3732.000000	1.257330
3730.000000	1.258457
3728.000000	1.257308
3726.000000	1.256463
3724.000000	1.256915
3722.000000	1.257245
3720.000000	1.257571
3718.000000	1.257550
3716.000000	1.256049
3714.000000	1.253296
3712.000000	1.253329
3710.000000	1.256523
3708.000000	1.258399
3706.000000	1.257742
3704.000000	1.256127
3702.000000	1.255945
3700.000000	1.257211
3698.000000	1.257437
3696.000000	1.256628
3694.000000	1.255137
3692.000000	1.252416
3690.000000	1.250826
3688.000000	1.254158
3686.000000	1.258204
3684.000000	1.257615
3682.000000	1.255579
3680.000000	1.253476
3678.000000	1.249981
3676.000000	1.249754
3674.000000	1.253067
3672.000000	1.252414
3670.000000	1.252588
3668.000000	1.256235
3666.000000	1.256766
3664.000000	1.255395
3662.000000	1.254722
3660.000000	1.253573
3658.000000	1.251950
3656.000000	1.252572
3654.000000	1.252930
3652.000000	1.249391
3650.000000	1.248043
3648.000000	1.252085
3646.000000	1.255394
3644.000000	1.255114
3642.000000	1.253985
3640.000000	1.253545
3638.000000	1.253236
3636.000000	1.252682
3634.000000	1.251811
3632.000000	1.249212
3630.000000	1.247331
3628.000000	1.251068
3626.000000	1.254559
3624.000000	1.253100
3622.000000	1.250381
3620.000000	1.249559
3618.000000	1.251124
3616.000000	1.251685
3614.000000	1.250594
3612.000000	1.250006
3610.000000	1.250003
3608.000000	1.251160
3606.000000	1.252454
3604.000000	1.252128
3602.000000	1.251301
3600.000000	1.251026
3598.000000	1.250856
3596.000000	1.250668
3594.000000	1.250953
3592.000000	1.250686
3590.000000	1.249229
3588.000000	1.249117
3586.000000	1.250958
3584.000000	1.251803
3582.000000	1.251298
3580.000000	1.250970
3578.000000	1.250930
3576.000000	1.250904
3574.000000	1.250929
3572.000000	1.250387
3570.000000	1.248953
3568.000000	1.248519
3566.000000	1.250106
3564.000000	1.251271
3562.000000	1.251085
3560.000000	1.250877
3558.000000	1.250936
3556.000000	1.250775
3554.000000	1.250559
3552.000000	1.250727
3550.000000	1.250761
3548.000000	1.250348
3546.000000	1.250429
3544.000000	1.251078
3542.000000	1.251463
3540.000000	1.251376
3538.000000	1.251199
3536.000000	1.251316
3534.000000	1.251500
3532.000000	1.251406
3530.000000	1.251227
3528.000000	1.251301
3526.000000	1.251529
3524.000000	1.251751
3522.000000	1.252097
3520.000000	1.252336
3518.000000	1.252435
3516.000000	1.252532
3514.000000	1.252543
3512.000000	1.252583
3510.000000	1.252844
3508.000000	1.253194
3506.000000	1.253265
3504.000000	1.253282
3502.000000	1.253719
3500.000000	1.254136
3498.000000	1.254256
3496.000000	1.254413
3494.000000	1.254698
3492.000000	1.255001
3490.000000	1.255227
3488.000000	1.255508
3486.000000	1.255870
3484.000000	1.256076
3482.000000	1.256282
3480.000000	1.256649
3478.000000	1.257024
3476.000000	1.257384
3474.000000	1.257779
3472.000000	1.258079
3470.000000	1.258335
3468.000000	1.258683
3466.000000	1.259079
3464.000000	1.259412
3462.000000	1.259809
3460.000000	1.260328
3458.000000	1.260765
3456.000000	1.261180
3454.000000	1.261557
3452.000000	1.261812
3450.000000	1.262078
3448.000000	1.262469
3446.000000	1.263018
3444.000000	1.263527
3442.000000	1.264078
3440.000000	1.264685
3438.000000	1.265103
3436.000000	1.265479
3434.000000	1.265967
3432.000000	1.266487
3430.000000	1.266963
3428.000000	1.267364
3426.000000	1.267729
3424.000000	1.268020
3422.000000	1.268299
3420.000000	1.268709
3418.000000	1.269102
3416.000000	1.269435
3414.000000	1.269728
3412.000000	1.269967
3410.000000	1.270223
3408.000000	1.270536
3406.000000	1.270826
3404.000000	1.270985
3402.000000	1.271043
3400.000000	1.271256
3398.000000	1.271634
3396.000000	1.271867
3394.000000	1.271979
3392.000000	1.272146
3390.000000	1.272408
3388.000000	1.272613
3386.000000	1.272758
3384.000000	1.272921
3382.000000	1.273094
3380.000000	1.273302
3378.000000	1.273518
3376.000000	1.273631
3374.000000	1.273665
3372.000000	1.273706
3370.000000	1.273753
3368.000000	1.273795
3366.000000	1.273911
3364.000000	1.274136
3362.000000	1.274327
3360.000000	1.274447
3358.000000	1.274571
3356.000000	1.274687
3354.000000	1.274763
3352.000000	1.274804
3350.000000	1.274890
3348.000000	1.275039
3346.000000	1.275120
3344.000000	1.275116
3342.000000	1.275170
3340.000000	1.275254
3338.000000	1.275285
3336.000000	1.275440
3334.000000	1.275614
3332.000000	1.275628
3330.000000	1.275710
3328.000000	1.275759
3326.000000	1.275758
3324.000000	1.275912
3322.000000	1.276064
3320.000000	1.276121
3318.000000	1.276198
3316.000000	1.276301
3314.000000	1.276321
3312.000000	1.276372
3310.000000	1.276431
3308.000000	1.276381
3306.000000	1.276362
3304.000000	1.276489
3302.000000	1.276611
3300.000000	1.276670
3298.000000	1.276783
3296.000000	1.276858
3294.000000	1.276890
3292.000000	1.276918
3290.000000	1.276946
3288.000000	1.277039
3286.000000	1.277171
3284.000000	1.277288
3282.000000	1.277411
3280.000000	1.277427
3278.000000	1.277342
3276.000000	1.277279
3274.000000	1.277270
3272.000000	1.277272
3270.000000	1.277336
3268.000000	1.277514
3266.000000	1.277660
3264.000000	1.277681
3262.000000	1.277663
3260.000000	1.277703
3258.000000	1.277723
3256.000000	1.277735
3254.000000	1.277806
3252.000000	1.277892
3250.000000	1.277906
3248.000000	1.277867
3246.000000	1.277913
3244.000000	1.278024
3242.000000	1.278065
3240.000000	1.278111
3238.000000	1.278200
3236.000000	1.278213
3234.000000	1.278231
3232.000000	1.278298
3230.000000	1.278382
3228.000000	1.278436
3226.000000	1.278459
3224.000000	1.278496
3222.000000	1.278541
3220.000000	1.278553
3218.000000	1.278601
3216.000000	1.278654
3214.000000	1.278668
3212.000000	1.278755
3210.000000	1.278893
3208.000000	1.278911
3206.000000	1.278791
3204.000000	1.278712
3202.000000	1.278740
3200.000000	1.278738
3198.000000	1.278758
3196.000000	1.278794
3194.000000	1.278770
3192.000000	1.278725
3190.000000	1.278750
3188.000000	1.278840
3186.000000	1.278860
3184.000000	1.278854
3182.000000	1.278812
3180.000000	1.278721
3178.000000	1.278694
3176.000000	1.278719
3174.000000	1.278725
3172.000000	1.278763
3170.000000	1.278838
3168.000000	1.278886
3166.000000	1.278888
3164.000000	1.278922
3162.000000	1.278989
3160.000000	1.279004
3158.000000	1.278966
3156.000000	1.278968
3154.000000	1.279009
3152.000000	1.279003
3150.000000	1.278990
3148.000000	1.279027
3146.000000	1.279053
3144.000000	1.279132
3142.000000	1.279233
3140.000000	1.279253
3138.000000	1.279299
3136.000000	1.279308
3134.000000	1.279267
3132.000000	1.279324
3130.000000	1.279426
3128.000000	1.279515
3126.000000	1.279525
3124.000000	1.279469
3122.000000	1.279442
3120.000000	1.279342
3118.000000	1.279279
3116.000000	1.279356
3114.000000	1.279385
3112.000000	1.279355
3110.000000	1.279310
3108.000000	1.279305
3106.000000	1.279369
3104.000000	1.279374
3102.000000	1.279323
3100.000000	1.279308
3098.000000	1.279303
3096.000000	1.279256
3094.000000	1.279118
3092.000000	1.279025
3090.000000	1.278994
3088.000000	1.278927
3086.000000	1.278871
3084.000000	1.278760
3082.000000	1.278618
3080.000000	1.278482
3078.000000	1.278375
3076.000000	1.278399
3074.000000	1.278383
3072.000000	1.278273
3070.000000	1.278189
3068.000000	1.278066
3066.000000	1.277957
3064.000000	1.278000
3062.000000	1.278051
3060.000000	1.277966
3058.000000	1.277876
3056.000000	1.277811
3054.000000	1.277744
3052.000000	1.277674
3050.000000	1.277634
3048.000000	1.277554
3046.000000	1.277384
3044.000000	1.277227
3042.000000	1.277191
3040.000000	1.277239
3038.000000	1.277213
3036.000000	1.277143
3034.000000	1.277016
3032.000000	1.276851
3030.000000	1.276715
3028.000000	1.276572
3026.000000	1.276413
3024.000000	1.276354
3022.000000	1.276420
3020.000000	1.276619
3018.000000	1.276816
3016.000000	1.277029
3014.000000	1.277247
3012.000000	1.277323
3010.000000	1.277213
3008.000000	1.276965
3006.000000	1.276697
3004.000000	1.276498
3002.000000	1.276354
3000.000000	1.276279
2998.000000	1.276209
2996.000000	1.276088
2994.000000	1.276022
2992.000000	1.276019
2990.000000	1.275964
2988.000000	1.275809
2986.000000	1.275677
2984.000000	1.275616
2982.000000	1.275566
2980.000000	1.275522
2978.000000	1.275424
2976.000000	1.275291
2974.000000	1.275220
2972.000000	1.275221
2970.000000	1.275326
2968.000000	1.275574
2966.000000	1.276078
2964.000000	1.276791
2962.000000	1.277535
2960.000000	1.277978
2958.000000	1.277865
2956.000000	1.277427
2954.000000	1.276957
2952.000000	1.276538
2950.000000	1.276011
2948.000000	1.275373
2946.000000	1.274814
2944.000000	1.274284
2942.000000	1.273850
2940.000000	1.273633
2938.000000	1.273611
2936.000000	1.273742
2934.000000	1.273779
2932.000000	1.273746
2930.000000	1.273805
2928.000000	1.274004
2926.000000	1.274588
2924.000000	1.275519
2922.000000	1.276459
2920.000000	1.277106
2918.000000	1.277371
2916.000000	1.277321
2914.000000	1.276991
2912.000000	1.276571
2910.000000	1.276179
2908.000000	1.275784
2906.000000	1.275503
2904.000000	1.275366
2902.000000	1.275265
2900.000000	1.275158
2898.000000	1.275029
2896.000000	1.274910
2894.000000	1.274816
2892.000000	1.274692
2890.000000	1.274554
2888.000000	1.274448
2886.000000	1.274266
2884.000000	1.274001
2882.000000	1.273811
2880.000000	1.273642
2878.000000	1.273407
2876.000000	1.273162
2874.000000	1.272903
2872.000000	1.272671
2870.000000	1.272293
2868.000000	1.271819
2866.000000	1.271562
2864.000000	1.271694
2862.000000	1.272281
2860.000000	1.273069
2858.000000	1.273677
2856.000000	1.273972
2854.000000	1.274074
2852.000000	1.274239
2850.000000	1.274504
2848.000000	1.274764
2846.000000	1.274713
2844.000000	1.274368
2842.000000	1.273959
2840.000000	1.273702
2838.000000	1.273541
2836.000000	1.273384
2834.000000	1.273199
2832.000000	1.273115
2830.000000	1.273074
2828.000000	1.272980
2826.000000	1.272932
2824.000000	1.272944
2822.000000	1.272846
2820.000000	1.272755
2818.000000	1.272735
2816.000000	1.272684
2814.000000	1.272654
2812.000000	1.272641
2810.000000	1.272611
2808.000000	1.272539
2806.000000	1.272435
2804.000000	1.272393
2802.000000	1.272322
2800.000000	1.272260
2798.000000	1.272270
2796.000000	1.272278
2794.000000	1.272249
2792.000000	1.272200
2790.000000	1.272164
2788.000000	1.272179
2786.000000	1.272242
2784.000000	1.272231
2782.000000	1.272184
2780.000000	1.272139
2778.000000	1.272068
2776.000000	1.272027
2774.000000	1.272023
2772.000000	1.271945
2770.000000	1.271865
2768.000000	1.271886
2766.000000	1.271876
2764.000000	1.271868
2762.000000	1.271879
2760.000000	1.271817
2758.000000	1.271764
2756.000000	1.271770
2754.000000	1.271749
2752.000000	1.271739
2750.000000	1.271787
2748.000000	1.271818
2746.000000	1.271783
2744.000000	1.271780
2742.000000	1.271794
2740.000000	1.271842
2738.000000	1.271929
2736.000000	1.271907
2734.000000	1.271863
2732.000000	1.271919
2730.000000	1.271987
2728.000000	1.272025
2726.000000	1.272033
2724.000000	1.272049
2722.000000	1.272085
2720.000000	1.272198
2718.000000	1.272307
2716.000000	1.272284
2714.000000	1.272302
2712.000000	1.272443
2710.000000	1.272527
2708.000000	1.272566
2706.000000	1.272646
2704.000000	1.272768
2702.000000	1.272841
2700.000000	1.272924
2698.000000	1.273031
2696.000000	1.273103
2694.000000	1.273139
2692.000000	1.273173
2690.000000	1.273273
2688.000000	1.273365
2686.000000	1.273397
2684.000000	1.273481
2682.000000	1.273592
2680.000000	1.273697
2678.000000	1.273807
2676.000000	1.273911
2674.000000	1.273987
2672.000000	1.274117
2670.000000	1.274218
2668.000000	1.274209
2666.000000	1.274203
2664.000000	1.274331
2662.000000	1.274456
2660.000000	1.274515
2658.000000	1.274612
2656.000000	1.274750
2654.000000	1.274790
2652.000000	1.274826
2650.000000	1.274932
2648.000000	1.275039
2646.000000	1.275056
2644.000000	1.275102
2642.000000	1.275206
2640.000000	1.275268
2638.000000	1.275266
2636.000000	1.275319
2634.000000	1.275367
2632.000000	1.275366
2630.000000	1.275367
2628.000000	1.275391
2626.000000	1.275456
2624.000000	1.275502
2622.000000	1.275528
2620.000000	1.275581
2618.000000	1.275634
2616.000000	1.275671
2614.000000	1.275749
2612.000000	1.275786
2610.000000	1.275670
2608.000000	1.275662
2606.000000	1.275770
2604.000000	1.275838
2602.000000	1.275888
2600.000000	1.275940
2598.000000	1.275879
2596.000000	1.275820
2594.000000	1.275874
2592.000000	1.275939
2590.000000	1.275982
2588.000000	1.276063
2586.000000	1.276165
2584.000000	1.276233
2582.000000	1.276245
2580.000000	1.276277
2578.000000	1.276305
2576.000000	1.276220
2574.000000	1.276187
2572.000000	1.276287
2570.000000	1.276373
2568.000000	1.276371
2566.000000	1.276357
2564.000000	1.276354
2562.000000	1.276323
2560.000000	1.276350
2558.000000	1.276436
2556.000000	1.276467
2554.000000	1.276397
2552.000000	1.276393
2550.000000	1.276430
2548.000000	1.276417
2546.000000	1.276412
2544.000000	1.276416
2542.000000	1.276407
2540.000000	1.276371
2538.000000	1.276332
2536.000000	1.276312
2534.000000	1.276322
2532.000000	1.276357
2530.000000	1.276374
2528.000000	1.276373
2526.000000	1.276329
2524.000000	1.276296
2522.000000	1.276263
2520.000000	1.276220
2518.000000	1.276224
2516.000000	1.276270
2514.000000	1.276237
2512.000000	1.276220
2510.000000	1.276214
2508.000000	1.276197
2506.000000	1.276168
2504.000000	1.276158
2502.000000	1.276166
2500.000000	1.276198
2498.000000	1.276147
2496.000000	1.276100
2494.000000	1.276144
2492.000000	1.276127
2490.000000	1.276046
2488.000000	1.276006
2486.000000	1.276006
2484.000000	1.275997
2482.000000	1.275988
2480.000000	1.276051
2478.000000	1.276087
2476.000000	1.276120
2474.000000	1.276062
2472.000000	1.275931
2470.000000	1.275931
2468.000000	1.276011
2466.000000	1.276020
2464.000000	1.276021
2462.000000	1.276062
2460.000000	1.276093
2458.000000	1.276052
2456.000000	1.275959
2454.000000	1.275911
2452.000000	1.275998
2450.000000	1.276037
2448.000000	1.276002
2446.000000	1.275960
2444.000000	1.275975
2442.000000	1.275944
2440.000000	1.275932
2438.000000	1.275973
2436.000000	1.275992
2434.000000	1.275930
2432.000000	1.275863
2430.000000	1.275812
2428.000000	1.275773
2426.000000	1.275812
2424.000000	1.275906
2422.000000	1.275928
2420.000000	1.275880
2418.000000	1.275861
2416.000000	1.275779
2414.000000	1.275746
2412.000000	1.275727
2410.000000	1.275694
2408.000000	1.275751
2406.000000	1.275727
2404.000000	1.275708
2402.000000	1.275707
2400.000000	1.275668
2398.000000	1.275659
2396.000000	1.275674
2394.000000	1.275649
2392.000000	1.275614
2390.000000	1.275598
2388.000000	1.275587
2386.000000	1.275533
2384.000000	1.275495
2382.000000	1.275370
2380.000000	1.275217
2378.000000	1.274996
2376.000000	1.274754
2374.000000	1.274458
2372.000000	1.274273
2370.000000	1.274234
2368.000000	1.274177
2366.000000	1.274073
2364.000000	1.274168
2362.000000	1.274407
2360.000000	1.274635
2358.000000	1.274925
2356.000000	1.275269
2354.000000	1.275595
2352.000000	1.275837
2350.000000	1.275567
2348.000000	1.274830
2346.000000	1.274492
2344.000000	1.274970
2342.000000	1.275899
2340.000000	1.276742
2338.000000	1.276858
2336.000000	1.276297
2334.000000	1.275721
2332.000000	1.275371
2330.000000	1.275238
2328.000000	1.275272
2326.000000	1.275319
2324.000000	1.275308
2322.000000	1.275290
2320.000000	1.275331
2318.000000	1.275388
2316.000000	1.275406
2314.000000	1.275462
2312.000000	1.275537
2310.000000	1.275507
2308.000000	1.275425
2306.000000	1.275407
2304.000000	1.275501
2302.000000	1.275441
2300.000000	1.275357
2298.000000	1.275392
2296.000000	1.275436
2294.000000	1.275473
2292.000000	1.275584
2290.000000	1.275578
2288.000000	1.275459
2286.000000	1.275440
2284.000000	1.275474
2282.000000	1.275431
2280.000000	1.275492
2278.000000	1.275613
2276.000000	1.275593
2274.000000	1.275437
2272.000000	1.275384
2270.000000	1.275427
2268.000000	1.275495
2266.000000	1.275427
2264.000000	1.275348
2262.000000	1.275299
2260.000000	1.275276
2258.000000	1.275293
2256.000000	1.275325
2254.000000	1.275294
2252.000000	1.275199
2250.000000	1.275073
2248.000000	1.274972
2246.000000	1.274893
2244.000000	1.274938
2242.000000	1.274976
2240.000000	1.274966
2238.000000	1.274909
2236.000000	1.274884
2234.000000	1.274742
2232.000000	1.274655
2230.000000	1.274620
2228.000000	1.274579
2226.000000	1.274513
2224.000000	1.274492
2222.000000	1.274463
2220.000000	1.274390
2218.000000	1.274338
2216.000000	1.274298
2214.000000	1.274209
2212.000000	1.274152
2210.000000	1.274086
2208.000000	1.274026
2206.000000	1.273901
2204.000000	1.273907
2202.000000	1.273950
2200.000000	1.273914
2198.000000	1.273754
2196.000000	1.273651
2194.000000	1.273645
2192.000000	1.273628
2190.000000	1.273530
2188.000000	1.273491
2186.000000	1.273506
2184.000000	1.273409
2182.000000	1.273282
2180.000000	1.273225
2178.000000	1.273153
2176.000000	1.273130
2174.000000	1.273050
2172.000000	1.272905
2170.000000	1.272857
2168.000000	1.272890
2166.000000	1.272801
2164.000000	1.272726
2162.000000	1.272616
2160.000000	1.272580
2158.000000	1.272575
2156.000000	1.272479
2154.000000	1.272365
2152.000000	1.272338
2150.000000	1.272254
2148.000000	1.272173
2146.000000	1.272161
2144.000000	1.272094
2142.000000	1.271844
2140.000000	1.271747
2138.000000	1.271769
2136.000000	1.271761
2134.000000	1.271738
2132.000000	1.271725
2130.000000	1.271659
2128.000000	1.271559
2126.000000	1.271418
2124.000000	1.271378
2122.000000	1.271305
2120.000000	1.271259
2118.000000	1.271213
2116.000000	1.271206
2114.000000	1.271178
2112.000000	1.271095
2110.000000	1.271043
2108.000000	1.271000
2106.000000	1.270939
2104.000000	1.270929
2102.000000	1.270961
2100.000000	1.270923
2098.000000	1.270841
2096.000000	1.270839
2094.000000	1.270824
2092.000000	1.270708
2090.000000	1.270620
2088.000000	1.270683
2086.000000	1.270644
2084.000000	1.270572
2082.000000	1.270499
2080.000000	1.270412
2078.000000	1.270298
2076.000000	1.270282
2074.000000	1.270256
2072.000000	1.270238
2070.000000	1.270109
2068.000000	1.270032
2066.000000	1.270016
2064.000000	1.269969
2062.000000	1.269886
2060.000000	1.269875
2058.000000	1.269838
2056.000000	1.269855
2054.000000	1.269884
2052.000000	1.269874
2050.000000	1.269775
2048.000000	1.269692
2046.000000	1.269583
2044.000000	1.269515
2042.000000	1.269512
2040.000000	1.269532
2038.000000	1.269450
2036.000000	1.269375
2034.000000	1.269397
2032.000000	1.269421
2030.000000	1.269314
2028.000000	1.269323
2026.000000	1.269300
2024.000000	1.269220
2022.000000	1.269152
2020.000000	1.269056
2018.000000	1.268944
2016.000000	1.268990
2014.000000	1.269019
2012.000000	1.269013
2010.000000	1.269001
2008.000000	1.268944
2006.000000	1.268869
2004.000000	1.268924
2002.000000	1.268962
2000.000000	1.268917
1998.000000	1.268894
1996.000000	1.268835
1994.000000	1.268521
1992.000000	1.268478
1990.000000	1.268712
1988.000000	1.268728
1986.000000	1.268684
1984.000000	1.268623
1982.000000	1.268578
1980.000000	1.268565
1978.000000	1.268541
1976.000000	1.268565
1974.000000	1.268563
1972.000000	1.268468
1970.000000	1.268278
1968.000000	1.268178
1966.000000	1.268323
1964.000000	1.268425
1962.000000	1.268350
1960.000000	1.268308
1958.000000	1.268531
1956.000000	1.268541
1954.000000	1.268362
1952.000000	1.268399
1950.000000	1.268442
1948.000000	1.268428
1946.000000	1.268183
1944.000000	1.267820
1942.000000	1.268081
1940.000000	1.268566
1938.000000	1.268526
1936.000000	1.268503
1934.000000	1.268512
1932.000000	1.268526
1930.000000	1.268486
1928.000000	1.268507
1926.000000	1.268302
1924.000000	1.268082
1922.000000	1.268259
1920.000000	1.267914
1918.000000	1.267813
1916.000000	1.268707
1914.000000	1.268764
1912.000000	1.268523
1910.000000	1.268418
1908.000000	1.268669
1906.000000	1.268706
1904.000000	1.268720
1902.000000	1.268713
1900.000000	1.268804
1898.000000	1.268744
1896.000000	1.268674
1894.000000	1.268753
1892.000000	1.268555
1890.000000	1.268340
1888.000000	1.268933
1886.000000	1.269047
1884.000000	1.269043
1882.000000	1.269026
1880.000000	1.269014
1878.000000	1.268927
1876.000000	1.268921
1874.000000	1.268805
1872.000000	1.268144
1870.000000	1.267275
1868.000000	1.268134
1866.000000	1.269013
1864.000000	1.269078
1862.000000	1.268846
1860.000000	1.268796
1858.000000	1.268867
1856.000000	1.268986
1854.000000	1.268907
1852.000000	1.268933
1850.000000	1.268683
1848.000000	1.268153
1846.000000	1.266549
1844.000000	1.267002
1842.000000	1.269084
1840.000000	1.269078
1838.000000	1.268798
1836.000000	1.268912
1834.000000	1.268710
1832.000000	1.267702
1830.000000	1.267534
1828.000000	1.268372
1826.000000	1.268099
1824.000000	1.268803
1822.000000	1.269275
1820.000000	1.269117
1818.000000	1.269005
1816.000000	1.269154
1814.000000	1.268966
1812.000000	1.268671
1810.000000	1.268864
1808.000000	1.269291
1806.000000	1.269177
1804.000000	1.268647
1802.000000	1.268048
1800.000000	1.268442
1798.000000	1.268936
1796.000000	1.268362
1794.000000	1.266552
1792.000000	1.267257
1790.000000	1.269272
1788.000000	1.269165
1786.000000	1.268378
1784.000000	1.268703
1782.000000	1.268698
1780.000000	1.268900
1778.000000	1.269138
1776.000000	1.267957
1774.000000	1.265519
1772.000000	1.266509
1770.000000	1.268448
1768.000000	1.268657
1766.000000	1.269573
1764.000000	1.268380
1762.000000	1.267995
1760.000000	1.269204
1758.000000	1.268760
1756.000000	1.269065
1754.000000	1.268356
1752.000000	1.266519
1750.000000	1.267896
1748.000000	1.269188
1746.000000	1.269370
1744.000000	1.269092
1742.000000	1.268318
1740.000000	1.268294
1738.000000	1.268869
1736.000000	1.264555
1734.000000	1.264562
1732.000000	1.270030
1730.000000	1.270722
1728.000000	1.270704
1726.000000	1.270624
1724.000000	1.270595
1722.000000	1.269997
1720.000000	1.266419
1718.000000	1.264374
1716.000000	1.268468
1714.000000	1.270799
1712.000000	1.271202
1710.000000	1.270587
1708.000000	1.269810
1706.000000	1.269119
1704.000000	1.268911
1702.000000	1.264124
1700.000000	1.264868
1698.000000	1.266761
1696.000000	1.266546
1694.000000	1.271894
1692.000000	1.272194
1690.000000	1.271104
1688.000000	1.269194
1686.000000	1.263963
1684.000000	1.266587
1682.000000	1.272268
1680.000000	1.272079
1678.000000	1.270469
1676.000000	1.268764
1674.000000	1.270758
1672.000000	1.270166
1670.000000	1.269286
1668.000000	1.271790
1666.000000	1.272280
1664.000000	1.270568
1662.000000	1.271591
1660.000000	1.272890
1658.000000	1.272003
1656.000000	1.266273
1654.000000	1.260336
1652.000000	1.268209
1650.000000	1.272872
1648.000000	1.268783
1646.000000	1.269998
1644.000000	1.273531
1642.000000	1.273618
1640.000000	1.272473
1638.000000	1.269223
1636.000000	1.268001
1634.000000	1.272728
1632.000000	1.274157
1630.000000	1.272753
1628.000000	1.272366
1626.000000	1.272002
1624.000000	1.271285
1622.000000	1.272647
1620.000000	1.271752
1618.000000	1.268373
1616.000000	1.270868
1614.000000	1.274098
1612.000000	1.273235
1610.000000	1.273282
1608.000000	1.273938
1606.000000	1.274602
1604.000000	1.274715
1602.000000	1.274952
1600.000000	1.275060
1598.000000	1.275045
1596.000000	1.274810
1594.000000	1.274855
1592.000000	1.274839
1590.000000	1.274836
1588.000000	1.274816
1586.000000	1.274854
1584.000000	1.274875
1582.000000	1.274894
1580.000000	1.273832
1578.000000	1.269948
1576.000000	1.270492
1574.000000	1.274969
1572.000000	1.273240
1570.000000	1.272111
1568.000000	1.273873
1566.000000	1.274046
1564.000000	1.273031
1562.000000	1.267931
1560.000000	1.262753
1558.000000	1.268730
1556.000000	1.272991
1554.000000	1.273439
1552.000000	1.274385
1550.000000	1.274317
1548.000000	1.274151
1546.000000	1.272306
1544.000000	1.270008
1542.000000	1.266573
1540.000000	1.266880
1538.000000	1.273326
1536.000000	1.274068
1534.000000	1.272260
1532.000000	1.274112
1530.000000	1.274069
1528.000000	1.272502
1526.000000	1.271783
1524.000000	1.270176
1522.000000	1.268287
1520.000000	1.271285
1518.000000	1.272207
1516.000000	1.272611
1514.000000	1.273290
1512.000000	1.272849
1510.000000	1.270384
1508.000000	1.265493
1506.000000	1.267912
1504.000000	1.273292
1502.000000	1.271907
1500.000000	1.268432
1498.000000	1.266170
1496.000000	1.269072
1494.000000	1.274507
1492.000000	1.275549
1490.000000	1.275475
1488.000000	1.276173
1486.000000	1.276414
1484.000000	1.276018
1482.000000	1.275134
1480.000000	1.274722
1478.000000	1.273534
1476.000000	1.271894
1474.000000	1.270043
1472.000000	1.271798
1470.000000	1.274417
1468.000000	1.273544
1466.000000	1.271938
1464.000000	1.272995
1462.000000	1.273446
1460.000000	1.269772
1458.000000	1.265793
1456.000000	1.269220
1454.000000	1.273014
1452.000000	1.273423
1450.000000	1.274431
1448.000000	1.275070
1446.000000	1.275299
1444.000000	1.274611
1442.000000	1.274247
1440.000000	1.272940
1438.000000	1.270472
1436.000000	1.271987
1434.000000	1.274165
1432.000000	1.273218
1430.000000	1.273089
1428.000000	1.273549
1426.000000	1.273321
1424.000000	1.272992
1422.000000	1.271807
1420.000000	1.269932
1418.000000	1.272144
1416.000000	1.273638
1414.000000	1.273494
1412.000000	1.273109
1410.000000	1.272867
1408.000000	1.272288
1406.000000	1.272005
1404.000000	1.272891
1402.000000	1.273542
1400.000000	1.273055
1398.000000	1.273244
1396.000000	1.272665
1394.000000	1.273112
1392.000000	1.273710
1390.000000	1.272645
1388.000000	1.271650
1386.000000	1.272486
1384.000000	1.273248
1382.000000	1.273441
1380.000000	1.273277
1378.000000	1.273022
1376.000000	1.272409
1374.000000	1.272440
1372.000000	1.272938
1370.000000	1.272795
1368.000000	1.272681
1366.000000	1.272489
1364.000000	1.271810
1362.000000	1.271927
1360.000000	1.272455
1358.000000	1.272528
1356.000000	1.272328
1354.000000	1.272286
1352.000000	1.272291
1350.000000	1.272303
1348.000000	1.272257
1346.000000	1.272260
1344.000000	1.272156
1342.000000	1.271816
1340.000000	1.271580
1338.000000	1.271900
1336.000000	1.272162
1334.000000	1.272250
1332.000000	1.272085
1330.000000	1.271995
1328.000000	1.271953
1326.000000	1.271926
1324.000000	1.271828
1322.000000	1.271630
1320.000000	1.271414
1318.000000	1.271489
1316.000000	1.271454
1314.000000	1.271392
1312.000000	1.271348
1310.000000	1.271350
1308.000000	1.271279
1306.000000	1.271323
1304.000000	1.271313
1302.000000	1.271243
1300.000000	1.271045
1298.000000	1.270938
1296.000000	1.270925
1294.000000	1.270922
1292.000000	1.270749
1290.000000	1.270735
1288.000000	1.270772
1286.000000	1.270820
1284.000000	1.270834
1282.000000	1.270923
1280.000000	1.270951
1278.000000	1.270893
1276.000000	1.270907
1274.000000	1.271183
1272.000000	1.271439
1270.000000	1.271579
1268.000000	1.272074
1266.000000	1.273355
1264.000000	1.275466
1262.000000	1.278240
1260.000000	1.280546
1258.000000	1.281356
1256.000000	1.280239
1254.000000	1.278313
1252.000000	1.276514
1250.000000	1.275361
1248.000000	1.274890
1246.000000	1.274776
1244.000000	1.274735
1242.000000	1.274906
1240.000000	1.275163
1238.000000	1.275518
1236.000000	1.275819
1234.000000	1.276057
1232.000000	1.276285
1230.000000	1.276626
1228.000000	1.276844
1226.000000	1.277092
1224.000000	1.277303
1222.000000	1.277569
1220.000000	1.277808
1218.000000	1.278101
1216.000000	1.278295
1214.000000	1.278648
1212.000000	1.279046
1210.000000	1.279325
1208.000000	1.279488
1206.000000	1.279748
1204.000000	1.279924
1202.000000	1.280248
1200.000000	1.280648
1198.000000	1.280968
1196.000000	1.281303
1194.000000	1.281581
1192.000000	1.281850
1190.000000	1.282328
1188.000000	1.282601
1186.000000	1.282777
1184.000000	1.282720
1182.000000	1.282885
1180.000000	1.283873
1178.000000	1.285002
1176.000000	1.285388
1174.000000	1.285363
1172.000000	1.285362
1170.000000	1.285762
1168.000000	1.286174
1166.000000	1.286744
1164.000000	1.287144
1162.000000	1.287347
1160.000000	1.287694
1158.000000	1.288040
1156.000000	1.288387
1154.000000	1.288773
1152.000000	1.288894
1150.000000	1.289275
1148.000000	1.289857
1146.000000	1.290210
1144.000000	1.290296
1142.000000	1.290915
1140.000000	1.291586
1138.000000	1.291915
1136.000000	1.291954
1134.000000	1.292107
1132.000000	1.292163
1130.000000	1.292392
1128.000000	1.292663
1126.000000	1.292802
1124.000000	1.292940
1122.000000	1.293332
1120.000000	1.293819
1118.000000	1.294096
1116.000000	1.294209
1114.000000	1.294520
1112.000000	1.294932
1110.000000	1.295513
1108.000000	1.296187
1106.000000	1.296830
1104.000000	1.297128
1102.000000	1.297789
1100.000000	1.298323
1098.000000	1.298591
1096.000000	1.298688
1094.000000	1.298977
1092.000000	1.299313
1090.000000	1.299525
1088.000000	1.299442
1086.000000	1.299374
1084.000000	1.298973
1082.000000	1.298727
1080.000000	1.298737
1078.000000	1.298792
1076.000000	1.298500
1074.000000	1.297933
1072.000000	1.297201
1070.000000	1.296887
1068.000000	1.296470
1066.000000	1.296348
1064.000000	1.296293
1062.000000	1.296094
1060.000000	1.295145
1058.000000	1.294280
1056.000000	1.293197
1054.000000	1.292251
1052.000000	1.292574
1050.000000	1.293765
1048.000000	1.294374
1046.000000	1.293370
1044.000000	1.292517
1042.000000	1.292603
1040.000000	1.291592
1038.000000	1.290505
1036.000000	1.290380
1034.000000	1.289946
1032.000000	1.288948
1030.000000	1.288277
1028.000000	1.288210
1026.000000	1.288042
1024.000000	1.287748
1022.000000	1.287307
1020.000000	1.286613
1018.000000	1.286018
1016.000000	1.285342
1014.000000	1.284464
1012.000000	1.282616
1010.000000	1.280524
1008.000000	1.278782
1006.000000	1.277304
1004.000000	1.275710
1002.000000	1.274425
1000.000000	1.273078
