PE IR       SUBTECH     SPECTRUM    ASCII       PEDS        4.00        
   -1
TE109A_057_125K.ASC
20/04/21
17:40:49.00
20/04/21
17:40:50.00
Administrator
TE109A, Tuesday, April 21 2020, 057.
1000.000000
#HDR
-1
-1
#GR
cm-1
A
1.0
0.0
6000.000000
-2.000000
2501
8
1.010731
0.933228
#DATA
6000.000000	0.943513
5998.000000	0.943525
5996.000000	0.943530
5994.000000	0.943534
5992.000000	0.943838
5990.000000	0.944472
5988.000000	0.944615
5986.000000	0.944104
5984.000000	0.943522
5982.000000	0.943234
5980.000000	0.943568
5978.000000	0.943709
5976.000000	0.943521
5974.000000	0.943499
5972.000000	0.943454
5970.000000	0.943451
5968.000000	0.943250
5966.000000	0.943214
5964.000000	0.943666
5962.000000	0.943835
5960.000000	0.943370
5958.000000	0.942998
5956.000000	0.943331
5954.000000	0.943584
5952.000000	0.943447
5950.000000	0.943284
5948.000000	0.943573
5946.000000	0.944442
5944.000000	0.944592
5942.000000	0.944148
5940.000000	0.943686
5938.000000	0.943426
5936.000000	0.943682
5934.000000	0.943637
5932.000000	0.943242
5930.000000	0.942735
5928.000000	0.942679
5926.000000	0.943048
5924.000000	0.943299
5922.000000	0.943291
5920.000000	0.943122
5918.000000	0.943153
5916.000000	0.943327
5914.000000	0.943681
5912.000000	0.943968
5910.000000	0.944145
5908.000000	0.944206
5906.000000	0.943703
5904.000000	0.943253
5902.000000	0.943101
5900.000000	0.943336
5898.000000	0.943485
5896.000000	0.943240
5894.000000	0.943305
5892.000000	0.943735
5890.000000	0.944047
5888.000000	0.944048
5886.000000	0.943808
5884.000000	0.943811
5882.000000	0.943712
5880.000000	0.943613
5878.000000	0.943446
5876.000000	0.943517
5874.000000	0.943689
5872.000000	0.943709
5870.000000	0.943686
5868.000000	0.943702
5866.000000	0.943798
5864.000000	0.943505
5862.000000	0.943218
5860.000000	0.943250
5858.000000	0.943590
5856.000000	0.943716
5854.000000	0.943612
5852.000000	0.943512
5850.000000	0.943406
5848.000000	0.943329
5846.000000	0.943340
5844.000000	0.943543
5842.000000	0.943536
5840.000000	0.943545
5838.000000	0.943493
5836.000000	0.943541
5834.000000	0.943463
5832.000000	0.943334
5830.000000	0.943547
5828.000000	0.943567
5826.000000	0.943710
5824.000000	0.943758
5822.000000	0.943893
5820.000000	0.943945
5818.000000	0.943886
5816.000000	0.943904
5814.000000	0.944048
5812.000000	0.943872
5810.000000	0.943672
5808.000000	0.943389
5806.000000	0.943257
5804.000000	0.943449
5802.000000	0.943574
5800.000000	0.943453
5798.000000	0.943299
5796.000000	0.943352
5794.000000	0.943776
5792.000000	0.943919
5790.000000	0.943896
5788.000000	0.943874
5786.000000	0.943850
5784.000000	0.943743
5782.000000	0.943609
5780.000000	0.943901
5778.000000	0.944131
5776.000000	0.943916
5774.000000	0.943457
5772.000000	0.943301
5770.000000	0.943386
5768.000000	0.943397
5766.000000	0.943560
5764.000000	0.943929
5762.000000	0.944388
5760.000000	0.944599
5758.000000	0.944475
5756.000000	0.944202
5754.000000	0.943913
5752.000000	0.943694
5750.000000	0.943740
5748.000000	0.943958
5746.000000	0.944070
5744.000000	0.944006
5742.000000	0.943572
5740.000000	0.943378
5738.000000	0.943546
5736.000000	0.943663
5734.000000	0.943760
5732.000000	0.943711
5730.000000	0.943483
5728.000000	0.943098
5726.000000	0.942933
5724.000000	0.943239
5722.000000	0.943817
5720.000000	0.944281
5718.000000	0.944269
5716.000000	0.943957
5714.000000	0.943674
5712.000000	0.943862
5710.000000	0.944394
5708.000000	0.944549
5706.000000	0.944331
5704.000000	0.944103
5702.000000	0.943935
5700.000000	0.943871
5698.000000	0.943778
5696.000000	0.943768
5694.000000	0.943825
5692.000000	0.943897
5690.000000	0.944063
5688.000000	0.944367
5686.000000	0.944487
5684.000000	0.944288
5682.000000	0.944060
5680.000000	0.943995
5678.000000	0.944097
5676.000000	0.944140
5674.000000	0.943985
5672.000000	0.943851
5670.000000	0.943778
5668.000000	0.943947
5666.000000	0.944000
5664.000000	0.944042
5662.000000	0.943943
5660.000000	0.944037
5658.000000	0.944000
5656.000000	0.944014
5654.000000	0.944058
5652.000000	0.944139
5650.000000	0.944080
5648.000000	0.943937
5646.000000	0.943982
5644.000000	0.944015
5642.000000	0.943909
5640.000000	0.943856
5638.000000	0.943835
5636.000000	0.943958
5634.000000	0.943894
5632.000000	0.943685
5630.000000	0.943658
5628.000000	0.943714
5626.000000	0.943776
5624.000000	0.943747
5622.000000	0.943863
5620.000000	0.944197
5618.000000	0.944365
5616.000000	0.944474
5614.000000	0.944393
5612.000000	0.944288
5610.000000	0.944097
5608.000000	0.944152
5606.000000	0.944460
5604.000000	0.944622
5602.000000	0.944615
5600.000000	0.944484
5598.000000	0.944371
5596.000000	0.944303
5594.000000	0.944340
5592.000000	0.944356
5590.000000	0.944313
5588.000000	0.944186
5586.000000	0.944147
5584.000000	0.944259
5582.000000	0.944482
5580.000000	0.944524
5578.000000	0.944402
5576.000000	0.944208
5574.000000	0.944253
5572.000000	0.944281
5570.000000	0.944303
5568.000000	0.944315
5566.000000	0.944284
5564.000000	0.944225
5562.000000	0.944335
5560.000000	0.944589
5558.000000	0.944676
5556.000000	0.944404
5554.000000	0.944167
5552.000000	0.944115
5550.000000	0.944270
5548.000000	0.944426
5546.000000	0.944283
5544.000000	0.944123
5542.000000	0.944233
5540.000000	0.944495
5538.000000	0.944477
5536.000000	0.944248
5534.000000	0.944177
5532.000000	0.944304
5530.000000	0.944253
5528.000000	0.944196
5526.000000	0.944253
5524.000000	0.944210
5522.000000	0.944239
5520.000000	0.944408
5518.000000	0.944585
5516.000000	0.944496
5514.000000	0.944376
5512.000000	0.944452
5510.000000	0.944560
5508.000000	0.944609
5506.000000	0.944750
5504.000000	0.944918
5502.000000	0.944769
5500.000000	0.944332
5498.000000	0.944003
5496.000000	0.943839
5494.000000	0.943881
5492.000000	0.944016
5490.000000	0.944172
5488.000000	0.944437
5486.000000	0.944581
5484.000000	0.944574
5482.000000	0.944464
5480.000000	0.944326
5478.000000	0.944263
5476.000000	0.944241
5474.000000	0.944338
5472.000000	0.944447
5470.000000	0.944494
5468.000000	0.944589
5466.000000	0.944781
5464.000000	0.944777
5462.000000	0.944475
5460.000000	0.944249
5458.000000	0.944175
5456.000000	0.944074
5454.000000	0.943871
5452.000000	0.944034
5450.000000	0.944346
5448.000000	0.944336
5446.000000	0.944037
5444.000000	0.943876
5442.000000	0.943966
5440.000000	0.944077
5438.000000	0.944211
5436.000000	0.944130
5434.000000	0.943956
5432.000000	0.943990
5430.000000	0.944285
5428.000000	0.944445
5426.000000	0.944279
5424.000000	0.944094
5422.000000	0.944190
5420.000000	0.944510
5418.000000	0.944719
5416.000000	0.944509
5414.000000	0.944178
5412.000000	0.944047
5410.000000	0.944226
5408.000000	0.944413
5406.000000	0.944498
5404.000000	0.944500
5402.000000	0.944427
5400.000000	0.944390
5398.000000	0.944475
5396.000000	0.944667
5394.000000	0.944889
5392.000000	0.944888
5390.000000	0.944727
5388.000000	0.944554
5386.000000	0.944460
5384.000000	0.944360
5382.000000	0.944314
5380.000000	0.944519
5378.000000	0.944609
5376.000000	0.944535
5374.000000	0.944442
5372.000000	0.944520
5370.000000	0.944495
5368.000000	0.944399
5366.000000	0.944534
5364.000000	0.944729
5362.000000	0.944674
5360.000000	0.944538
5358.000000	0.944510
5356.000000	0.944450
5354.000000	0.944328
5352.000000	0.944501
5350.000000	0.944756
5348.000000	0.944809
5346.000000	0.944720
5344.000000	0.944767
5342.000000	0.944694
5340.000000	0.944572
5338.000000	0.944648
5336.000000	0.944694
5334.000000	0.944626
5332.000000	0.944683
5330.000000	0.944942
5328.000000	0.945084
5326.000000	0.944959
5324.000000	0.944945
5322.000000	0.944990
5320.000000	0.944949
5318.000000	0.944839
5316.000000	0.944843
5314.000000	0.945226
5312.000000	0.945585
5310.000000	0.945562
5308.000000	0.945269
5306.000000	0.945035
5304.000000	0.945019
5302.000000	0.945197
5300.000000	0.945344
5298.000000	0.945479
5296.000000	0.945549
5294.000000	0.945841
5292.000000	0.946108
5290.000000	0.946104
5288.000000	0.945946
5286.000000	0.945780
5284.000000	0.945612
5282.000000	0.945488
5280.000000	0.945507
5278.000000	0.945752
5276.000000	0.946089
5274.000000	0.946235
5272.000000	0.946196
5270.000000	0.946049
5268.000000	0.946053
5266.000000	0.946062
5264.000000	0.946090
5262.000000	0.946115
5260.000000	0.946202
5258.000000	0.946327
5256.000000	0.946461
5254.000000	0.946591
5252.000000	0.946831
5250.000000	0.947018
5248.000000	0.946907
5246.000000	0.946703
5244.000000	0.946746
5242.000000	0.947014
5240.000000	0.947221
5238.000000	0.947310
5236.000000	0.947475
5234.000000	0.947639
5232.000000	0.947717
5230.000000	0.947703
5228.000000	0.947776
5226.000000	0.947888
5224.000000	0.947836
5222.000000	0.947870
5220.000000	0.948086
5218.000000	0.948370
5216.000000	0.948563
5214.000000	0.948659
5212.000000	0.948832
5210.000000	0.948943
5208.000000	0.949041
5206.000000	0.949017
5204.000000	0.948987
5202.000000	0.949127
5200.000000	0.949341
5198.000000	0.949550
5196.000000	0.949714
5194.000000	0.949745
5192.000000	0.949709
5190.000000	0.949780
5188.000000	0.950064
5186.000000	0.950299
5184.000000	0.950364
5182.000000	0.950492
5180.000000	0.950709
5178.000000	0.951083
5176.000000	0.951364
5174.000000	0.951371
5172.000000	0.951233
5170.000000	0.951217
5168.000000	0.951355
5166.000000	0.951549
5164.000000	0.951816
5162.000000	0.952151
5160.000000	0.952352
5158.000000	0.952424
5156.000000	0.952403
5154.000000	0.952474
5152.000000	0.952581
5150.000000	0.952776
5148.000000	0.953017
5146.000000	0.953147
5144.000000	0.953216
5142.000000	0.953288
5140.000000	0.953451
5138.000000	0.953601
5136.000000	0.953777
5134.000000	0.953930
5132.000000	0.954013
5130.000000	0.954111
5128.000000	0.954221
5126.000000	0.954362
5124.000000	0.954537
5122.000000	0.954692
5120.000000	0.954763
5118.000000	0.954838
5116.000000	0.955026
5114.000000	0.955180
5112.000000	0.955189
5110.000000	0.955076
5108.000000	0.955053
5106.000000	0.955232
5104.000000	0.955478
5102.000000	0.955613
5100.000000	0.955693
5098.000000	0.955816
5096.000000	0.955812
5094.000000	0.955736
5092.000000	0.955726
5090.000000	0.955826
5088.000000	0.955926
5086.000000	0.956092
5084.000000	0.956199
5082.000000	0.956205
5080.000000	0.956280
5078.000000	0.956439
5076.000000	0.956537
5074.000000	0.956554
5072.000000	0.956575
5070.000000	0.956651
5068.000000	0.956767
5066.000000	0.956815
5064.000000	0.956814
5062.000000	0.956904
5060.000000	0.956931
5058.000000	0.956797
5056.000000	0.956765
5054.000000	0.956930
5052.000000	0.956924
5050.000000	0.956788
5048.000000	0.956789
5046.000000	0.956985
5044.000000	0.957104
5042.000000	0.957140
5040.000000	0.957140
5038.000000	0.957144
5036.000000	0.957178
5034.000000	0.957309
5032.000000	0.957466
5030.000000	0.957549
5028.000000	0.957497
5026.000000	0.957446
5024.000000	0.957413
5022.000000	0.957350
5020.000000	0.957301
5018.000000	0.957311
5016.000000	0.957236
5014.000000	0.957157
5012.000000	0.957230
5010.000000	0.957343
5008.000000	0.957276
5006.000000	0.957271
5004.000000	0.957481
5002.000000	0.957695
5000.000000	0.957741
4998.000000	0.957631
4996.000000	0.957514
4994.000000	0.957497
4992.000000	0.957434
4990.000000	0.957383
4988.000000	0.957495
4986.000000	0.957658
4984.000000	0.957571
4982.000000	0.957297
4980.000000	0.957178
4978.000000	0.957238
4976.000000	0.957335
4974.000000	0.957339
4972.000000	0.957400
4970.000000	0.957520
4968.000000	0.957498
4966.000000	0.957304
4964.000000	0.957166
4962.000000	0.957183
4960.000000	0.957249
4958.000000	0.957286
4956.000000	0.957209
4954.000000	0.957116
4952.000000	0.957157
4950.000000	0.957313
4948.000000	0.957427
4946.000000	0.957347
4944.000000	0.957145
4942.000000	0.956973
4940.000000	0.956910
4938.000000	0.956933
4936.000000	0.956998
4934.000000	0.957056
4932.000000	0.957039
4930.000000	0.956982
4928.000000	0.956883
4926.000000	0.956812
4924.000000	0.956756
4922.000000	0.956662
4920.000000	0.956550
4918.000000	0.956605
4916.000000	0.956772
4914.000000	0.956888
4912.000000	0.956801
4910.000000	0.956589
4908.000000	0.956480
4906.000000	0.956465
4904.000000	0.956508
4902.000000	0.956513
4900.000000	0.956459
4898.000000	0.956343
4896.000000	0.956266
4894.000000	0.956177
4892.000000	0.956022
4890.000000	0.955946
4888.000000	0.955968
4886.000000	0.956001
4884.000000	0.955933
4882.000000	0.955929
4880.000000	0.955994
4878.000000	0.955903
4876.000000	0.955697
4874.000000	0.955510
4872.000000	0.955406
4870.000000	0.955380
4868.000000	0.955445
4866.000000	0.955399
4864.000000	0.955273
4862.000000	0.955209
4860.000000	0.955180
4858.000000	0.955102
4856.000000	0.954998
4854.000000	0.954812
4852.000000	0.954637
4850.000000	0.954560
4848.000000	0.954583
4846.000000	0.954588
4844.000000	0.954544
4842.000000	0.954573
4840.000000	0.954669
4838.000000	0.954685
4836.000000	0.954497
4834.000000	0.954240
4832.000000	0.954051
4830.000000	0.953974
4828.000000	0.953860
4826.000000	0.953724
4824.000000	0.953638
4822.000000	0.953582
4820.000000	0.953492
4818.000000	0.953443
4816.000000	0.953521
4814.000000	0.953507
4812.000000	0.953352
4810.000000	0.953142
4808.000000	0.952971
4806.000000	0.952765
4804.000000	0.952589
4802.000000	0.952511
4800.000000	0.952347
4798.000000	0.952179
4796.000000	0.952135
4794.000000	0.952119
4792.000000	0.951908
4790.000000	0.951700
4788.000000	0.951640
4786.000000	0.951682
4784.000000	0.951734
4782.000000	0.951630
4780.000000	0.951318
4778.000000	0.951056
4776.000000	0.950965
4774.000000	0.950904
4772.000000	0.950863
4770.000000	0.950765
4768.000000	0.950472
4766.000000	0.950206
4764.000000	0.950154
4762.000000	0.950147
4760.000000	0.950025
4758.000000	0.950011
4756.000000	0.950080
4754.000000	0.950054
4752.000000	0.949945
4750.000000	0.949838
4748.000000	0.949710
4746.000000	0.949551
4744.000000	0.949455
4742.000000	0.949262
4740.000000	0.949012
4738.000000	0.948846
4736.000000	0.948799
4734.000000	0.948769
4732.000000	0.948774
4730.000000	0.948777
4728.000000	0.948643
4726.000000	0.948467
4724.000000	0.948360
4722.000000	0.948334
4720.000000	0.948253
4718.000000	0.948164
4716.000000	0.948159
4714.000000	0.948085
4712.000000	0.947827
4710.000000	0.947659
4708.000000	0.947641
4706.000000	0.947501
4704.000000	0.947290
4702.000000	0.947248
4700.000000	0.947224
4698.000000	0.947098
4696.000000	0.946992
4694.000000	0.946815
4692.000000	0.946597
4690.000000	0.946565
4688.000000	0.946668
4686.000000	0.946574
4684.000000	0.946337
4682.000000	0.946214
4680.000000	0.946269
4678.000000	0.946309
4676.000000	0.946268
4674.000000	0.946163
4672.000000	0.946062
4670.000000	0.945983
4668.000000	0.945962
4666.000000	0.945891
4664.000000	0.945752
4662.000000	0.945581
4660.000000	0.945476
4658.000000	0.945480
4656.000000	0.945529
4654.000000	0.945526
4652.000000	0.945448
4650.000000	0.945331
4648.000000	0.945244
4646.000000	0.945255
4644.000000	0.945301
4642.000000	0.945309
4640.000000	0.945250
4638.000000	0.945138
4636.000000	0.945005
4634.000000	0.944896
4632.000000	0.944859
4630.000000	0.944891
4628.000000	0.944901
4626.000000	0.944817
4624.000000	0.944775
4622.000000	0.944814
4620.000000	0.944831
4618.000000	0.944760
4616.000000	0.944676
4614.000000	0.944561
4612.000000	0.944428
4610.000000	0.944345
4608.000000	0.944349
4606.000000	0.944351
4604.000000	0.944309
4602.000000	0.944276
4600.000000	0.944271
4598.000000	0.944318
4596.000000	0.944345
4594.000000	0.944304
4592.000000	0.944218
4590.000000	0.944088
4588.000000	0.943862
4586.000000	0.943681
4584.000000	0.943709
4582.000000	0.943799
4580.000000	0.943789
4578.000000	0.943699
4576.000000	0.943649
4574.000000	0.943645
4572.000000	0.943622
4570.000000	0.943558
4568.000000	0.943454
4566.000000	0.943407
4564.000000	0.943406
4562.000000	0.943456
4560.000000	0.943436
4558.000000	0.943379
4556.000000	0.943361
4554.000000	0.943410
4552.000000	0.943365
4550.000000	0.943355
4548.000000	0.943405
4546.000000	0.943385
4544.000000	0.943253
4542.000000	0.943188
4540.000000	0.943216
4538.000000	0.943203
4536.000000	0.943081
4534.000000	0.942999
4532.000000	0.943014
4530.000000	0.943044
4528.000000	0.943079
4526.000000	0.943064
4524.000000	0.942939
4522.000000	0.942786
4520.000000	0.942794
4518.000000	0.942855
4516.000000	0.942848
4514.000000	0.942839
4512.000000	0.942895
4510.000000	0.942899
4508.000000	0.942805
4506.000000	0.942726
4504.000000	0.942757
4502.000000	0.942802
4500.000000	0.942730
4498.000000	0.942648
4496.000000	0.942616
4494.000000	0.942590
4492.000000	0.942527
4490.000000	0.942527
4488.000000	0.942585
4486.000000	0.942569
4484.000000	0.942516
4482.000000	0.942522
4480.000000	0.942464
4478.000000	0.942360
4476.000000	0.942349
4474.000000	0.942392
4472.000000	0.942373
4470.000000	0.942217
4468.000000	0.942090
4466.000000	0.942146
4464.000000	0.942237
4462.000000	0.942253
4460.000000	0.942305
4458.000000	0.942358
4456.000000	0.942289
4454.000000	0.942137
4452.000000	0.942130
4450.000000	0.942234
4448.000000	0.942244
4446.000000	0.942188
4444.000000	0.942175
4442.000000	0.942183
4440.000000	0.942187
4438.000000	0.942157
4436.000000	0.942080
4434.000000	0.941977
4432.000000	0.941952
4430.000000	0.942054
4428.000000	0.942168
4426.000000	0.942153
4424.000000	0.942066
4422.000000	0.942008
4420.000000	0.942021
4418.000000	0.942051
4416.000000	0.942100
4414.000000	0.942162
4412.000000	0.942141
4410.000000	0.942007
4408.000000	0.941936
4406.000000	0.942047
4404.000000	0.942136
4402.000000	0.942060
4400.000000	0.941947
4398.000000	0.941963
4396.000000	0.942048
4394.000000	0.942103
4392.000000	0.942093
4390.000000	0.942038
4388.000000	0.941986
4386.000000	0.942012
4384.000000	0.942105
4382.000000	0.942127
4380.000000	0.942063
4378.000000	0.942015
4376.000000	0.942019
4374.000000	0.942020
4372.000000	0.942042
4370.000000	0.942115
4368.000000	0.942224
4366.000000	0.942295
4364.000000	0.942314
4362.000000	0.942325
4360.000000	0.942353
4358.000000	0.942366
4356.000000	0.942352
4354.000000	0.942357
4352.000000	0.942426
4350.000000	0.942522
4348.000000	0.942531
4346.000000	0.942488
4344.000000	0.942499
4342.000000	0.942528
4340.000000	0.942498
4338.000000	0.942510
4336.000000	0.942600
4334.000000	0.942670
4332.000000	0.942715
4330.000000	0.942731
4328.000000	0.942656
4326.000000	0.942680
4324.000000	0.942863
4322.000000	0.942864
4320.000000	0.942739
4318.000000	0.942761
4316.000000	0.942843
4314.000000	0.942859
4312.000000	0.942862
4310.000000	0.942831
4308.000000	0.942822
4306.000000	0.942902
4304.000000	0.943010
4302.000000	0.943065
4300.000000	0.943076
4298.000000	0.943069
4296.000000	0.943105
4294.000000	0.943179
4292.000000	0.943161
4290.000000	0.943059
4288.000000	0.942984
4286.000000	0.942962
4284.000000	0.943025
4282.000000	0.943156
4280.000000	0.943217
4278.000000	0.943231
4276.000000	0.943271
4274.000000	0.943327
4272.000000	0.943391
4270.000000	0.943432
4268.000000	0.943445
4266.000000	0.943442
4264.000000	0.943377
4262.000000	0.943395
4260.000000	0.943554
4258.000000	0.943658
4256.000000	0.943596
4254.000000	0.943580
4252.000000	0.943674
4250.000000	0.943753
4248.000000	0.943744
4246.000000	0.943746
4244.000000	0.943771
4242.000000	0.943824
4240.000000	0.943910
4238.000000	0.943979
4236.000000	0.943946
4234.000000	0.943920
4232.000000	0.943928
4230.000000	0.943874
4228.000000	0.943813
4226.000000	0.943832
4224.000000	0.943893
4222.000000	0.943936
4220.000000	0.943978
4218.000000	0.944053
4216.000000	0.944073
4214.000000	0.943989
4212.000000	0.943960
4210.000000	0.944036
4208.000000	0.944050
4206.000000	0.943972
4204.000000	0.943898
4202.000000	0.943769
4200.000000	0.943722
4198.000000	0.943887
4196.000000	0.943984
4194.000000	0.943893
4192.000000	0.943883
4190.000000	0.943939
4188.000000	0.943955
4186.000000	0.943971
4184.000000	0.943926
4182.000000	0.943845
4180.000000	0.943837
4178.000000	0.943819
4176.000000	0.943737
4174.000000	0.943649
4172.000000	0.943626
4170.000000	0.943693
4168.000000	0.943771
4166.000000	0.943765
4164.000000	0.943752
4162.000000	0.943771
4160.000000	0.943759
4158.000000	0.943770
4156.000000	0.943834
4154.000000	0.943840
4152.000000	0.943837
4150.000000	0.943876
4148.000000	0.943868
4146.000000	0.943785
4144.000000	0.943771
4142.000000	0.943808
4140.000000	0.943785
4138.000000	0.943741
4136.000000	0.943740
4134.000000	0.943709
4132.000000	0.943695
4130.000000	0.943751
4128.000000	0.943794
4126.000000	0.943791
4124.000000	0.943756
4122.000000	0.943707
4120.000000	0.943736
4118.000000	0.943798
4116.000000	0.943807
4114.000000	0.943794
4112.000000	0.943751
4110.000000	0.943693
4108.000000	0.943685
4106.000000	0.943697
4104.000000	0.943650
4102.000000	0.943539
4100.000000	0.943430
4098.000000	0.943428
4096.000000	0.943481
4094.000000	0.943459
4092.000000	0.943402
4090.000000	0.943367
4088.000000	0.943352
4086.000000	0.943358
4084.000000	0.943343
4082.000000	0.943297
4080.000000	0.943272
4078.000000	0.943268
4076.000000	0.943264
4074.000000	0.943255
4072.000000	0.943219
4070.000000	0.943266
4068.000000	0.943382
4066.000000	0.943378
4064.000000	0.943313
4062.000000	0.943278
4060.000000	0.943254
4058.000000	0.943261
4056.000000	0.943248
4054.000000	0.943178
4052.000000	0.943122
4050.000000	0.943086
4048.000000	0.943038
4046.000000	0.943053
4044.000000	0.943132
4042.000000	0.943126
4040.000000	0.943085
4038.000000	0.943107
4036.000000	0.943103
4034.000000	0.943021
4032.000000	0.942958
4030.000000	0.942970
4028.000000	0.942971
4026.000000	0.942937
4024.000000	0.942914
4022.000000	0.942891
4020.000000	0.942904
4018.000000	0.942896
4016.000000	0.942818
4014.000000	0.942792
4012.000000	0.942783
4010.000000	0.942732
4008.000000	0.942682
4006.000000	0.942632
4004.000000	0.942617
4002.000000	0.942629
4000.000000	0.942611
3998.000000	0.942561
3996.000000	0.942522
3994.000000	0.942527
3992.000000	0.942519
3990.000000	0.942411
3988.000000	0.942311
3986.000000	0.942337
3984.000000	0.942323
3982.000000	0.942199
3980.000000	0.942104
3978.000000	0.942096
3976.000000	0.942153
3974.000000	0.942187
3972.000000	0.942118
3970.000000	0.942006
3968.000000	0.941951
3966.000000	0.941844
3964.000000	0.941637
3962.000000	0.941546
3960.000000	0.941604
3958.000000	0.941664
3956.000000	0.941677
3954.000000	0.941596
3952.000000	0.941500
3950.000000	0.941392
3948.000000	0.941173
3946.000000	0.941051
3944.000000	0.941128
3942.000000	0.941128
3940.000000	0.940961
3938.000000	0.940817
3936.000000	0.940828
3934.000000	0.940848
3932.000000	0.940746
3930.000000	0.940650
3928.000000	0.940552
3926.000000	0.940371
3924.000000	0.940259
3922.000000	0.940226
3920.000000	0.940113
3918.000000	0.939958
3916.000000	0.939883
3914.000000	0.939873
3912.000000	0.939783
3910.000000	0.939630
3908.000000	0.939620
3906.000000	0.939625
3904.000000	0.939407
3902.000000	0.939106
3900.000000	0.938920
3898.000000	0.938897
3896.000000	0.938992
3894.000000	0.939024
3892.000000	0.938772
3890.000000	0.938514
3888.000000	0.938526
3886.000000	0.938439
3884.000000	0.938284
3882.000000	0.938243
3880.000000	0.938096
3878.000000	0.938027
3876.000000	0.938123
3874.000000	0.938175
3872.000000	0.938086
3870.000000	0.937673
3868.000000	0.937352
3866.000000	0.937362
3864.000000	0.937214
3862.000000	0.937063
3860.000000	0.937165
3858.000000	0.937496
3856.000000	0.937744
3854.000000	0.937075
3852.000000	0.936033
3850.000000	0.935926
3848.000000	0.936465
3846.000000	0.936792
3844.000000	0.936714
3842.000000	0.936550
3840.000000	0.936500
3838.000000	0.936198
3836.000000	0.935854
3834.000000	0.935952
3832.000000	0.936042
3830.000000	0.935959
3828.000000	0.935935
3826.000000	0.935880
3824.000000	0.935873
3822.000000	0.935707
3820.000000	0.935381
3818.000000	0.935280
3816.000000	0.935047
3814.000000	0.934796
3812.000000	0.935006
3810.000000	0.935256
3808.000000	0.935091
3806.000000	0.934787
3804.000000	0.934853
3802.000000	0.934705
3800.000000	0.934225
3798.000000	0.934225
3796.000000	0.934376
3794.000000	0.934340
3792.000000	0.934373
3790.000000	0.934415
3788.000000	0.934354
3786.000000	0.934271
3784.000000	0.934236
3782.000000	0.934150
3780.000000	0.934010
3778.000000	0.933954
3776.000000	0.934018
3774.000000	0.934122
3772.000000	0.934167
3770.000000	0.934050
3768.000000	0.933893
3766.000000	0.933851
3764.000000	0.933923
3762.000000	0.934035
3760.000000	0.934023
3758.000000	0.933913
3756.000000	0.933980
3754.000000	0.934167
3752.000000	0.933964
3750.000000	0.933495
3748.000000	0.933614
3746.000000	0.933918
3744.000000	0.933439
3742.000000	0.933228
3740.000000	0.933841
3738.000000	0.934205
3736.000000	0.934100
3734.000000	0.933996
3732.000000	0.933984
3730.000000	0.934136
3728.000000	0.934427
3726.000000	0.934517
3724.000000	0.934579
3722.000000	0.934746
3720.000000	0.934822
3718.000000	0.934915
3716.000000	0.935216
3714.000000	0.935501
3712.000000	0.935365
3710.000000	0.935102
3708.000000	0.935218
3706.000000	0.935659
3704.000000	0.936111
3702.000000	0.936329
3700.000000	0.936498
3698.000000	0.936794
3696.000000	0.937149
3694.000000	0.937578
3692.000000	0.937988
3690.000000	0.938174
3688.000000	0.938067
3686.000000	0.938191
3684.000000	0.938767
3682.000000	0.939332
3680.000000	0.939887
3678.000000	0.940467
3676.000000	0.940670
3674.000000	0.940889
3672.000000	0.941556
3670.000000	0.941961
3668.000000	0.942250
3666.000000	0.942951
3664.000000	0.943768
3662.000000	0.944505
3660.000000	0.945293
3658.000000	0.946032
3656.000000	0.946541
3654.000000	0.947252
3652.000000	0.948259
3650.000000	0.948868
3648.000000	0.949173
3646.000000	0.949915
3644.000000	0.951060
3642.000000	0.952105
3640.000000	0.952950
3638.000000	0.953803
3636.000000	0.954715
3634.000000	0.955595
3632.000000	0.956574
3630.000000	0.957385
3628.000000	0.957842
3626.000000	0.958610
3624.000000	0.959762
3622.000000	0.960812
3620.000000	0.961557
3618.000000	0.962162
3616.000000	0.962942
3614.000000	0.963921
3612.000000	0.964933
3610.000000	0.965715
3608.000000	0.966331
3606.000000	0.967175
3604.000000	0.968172
3602.000000	0.968952
3600.000000	0.969524
3598.000000	0.970150
3596.000000	0.970858
3594.000000	0.971517
3592.000000	0.972224
3590.000000	0.972915
3588.000000	0.973319
3586.000000	0.973685
3584.000000	0.974374
3582.000000	0.975063
3580.000000	0.975481
3578.000000	0.975865
3576.000000	0.976254
3574.000000	0.976612
3572.000000	0.977022
3570.000000	0.977440
3568.000000	0.977765
3566.000000	0.978032
3564.000000	0.978291
3562.000000	0.978554
3560.000000	0.978863
3558.000000	0.979171
3556.000000	0.979435
3554.000000	0.979658
3552.000000	0.979841
3550.000000	0.980112
3548.000000	0.980420
3546.000000	0.980615
3544.000000	0.980724
3542.000000	0.980848
3540.000000	0.981060
3538.000000	0.981253
3536.000000	0.981465
3534.000000	0.981678
3532.000000	0.981843
3530.000000	0.981986
3528.000000	0.982110
3526.000000	0.982306
3524.000000	0.982530
3522.000000	0.982702
3520.000000	0.982873
3518.000000	0.983063
3516.000000	0.983260
3514.000000	0.983462
3512.000000	0.983683
3510.000000	0.983960
3508.000000	0.984278
3506.000000	0.984569
3504.000000	0.984716
3502.000000	0.984851
3500.000000	0.985222
3498.000000	0.985619
3496.000000	0.985863
3494.000000	0.986082
3492.000000	0.986335
3490.000000	0.986603
3488.000000	0.986857
3486.000000	0.987160
3484.000000	0.987458
3482.000000	0.987684
3480.000000	0.987906
3478.000000	0.988158
3476.000000	0.988411
3474.000000	0.988624
3472.000000	0.988874
3470.000000	0.989155
3468.000000	0.989348
3466.000000	0.989612
3464.000000	0.989951
3462.000000	0.990158
3460.000000	0.990337
3458.000000	0.990545
3456.000000	0.990821
3454.000000	0.991066
3452.000000	0.991225
3450.000000	0.991420
3448.000000	0.991622
3446.000000	0.991754
3444.000000	0.991878
3442.000000	0.991982
3440.000000	0.992095
3438.000000	0.992237
3436.000000	0.992402
3434.000000	0.992604
3432.000000	0.992765
3430.000000	0.992869
3428.000000	0.993093
3426.000000	0.993378
3424.000000	0.993543
3422.000000	0.993668
3420.000000	0.993750
3418.000000	0.993769
3416.000000	0.993837
3414.000000	0.993988
3412.000000	0.994131
3410.000000	0.994204
3408.000000	0.994323
3406.000000	0.994449
3404.000000	0.994538
3402.000000	0.994615
3400.000000	0.994695
3398.000000	0.994791
3396.000000	0.994923
3394.000000	0.995038
3392.000000	0.995069
3390.000000	0.995042
3388.000000	0.995101
3386.000000	0.995192
3384.000000	0.995230
3382.000000	0.995227
3380.000000	0.995264
3378.000000	0.995419
3376.000000	0.995527
3374.000000	0.995542
3372.000000	0.995532
3370.000000	0.995599
3368.000000	0.995683
3366.000000	0.995684
3364.000000	0.995687
3362.000000	0.995726
3360.000000	0.995771
3358.000000	0.995842
3356.000000	0.995871
3354.000000	0.995889
3352.000000	0.995996
3350.000000	0.996082
3348.000000	0.996090
3346.000000	0.996195
3344.000000	0.996253
3342.000000	0.996187
3340.000000	0.996218
3338.000000	0.996317
3336.000000	0.996358
3334.000000	0.996384
3332.000000	0.996392
3330.000000	0.996418
3328.000000	0.996434
3326.000000	0.996340
3324.000000	0.996324
3322.000000	0.996472
3320.000000	0.996607
3318.000000	0.996638
3316.000000	0.996621
3314.000000	0.996702
3312.000000	0.996834
3310.000000	0.996867
3308.000000	0.996868
3306.000000	0.996928
3304.000000	0.996964
3302.000000	0.997023
3300.000000	0.997070
3298.000000	0.997067
3296.000000	0.997108
3294.000000	0.997195
3292.000000	0.997292
3290.000000	0.997372
3288.000000	0.997370
3286.000000	0.997370
3284.000000	0.997479
3282.000000	0.997529
3280.000000	0.997551
3278.000000	0.997590
3276.000000	0.997598
3274.000000	0.997662
3272.000000	0.997788
3270.000000	0.997918
3268.000000	0.997995
3266.000000	0.998011
3264.000000	0.998046
3262.000000	0.998028
3260.000000	0.997979
3258.000000	0.998084
3256.000000	0.998212
3254.000000	0.998208
3252.000000	0.998198
3250.000000	0.998246
3248.000000	0.998338
3246.000000	0.998366
3244.000000	0.998361
3242.000000	0.998416
3240.000000	0.998499
3238.000000	0.998565
3236.000000	0.998625
3234.000000	0.998574
3232.000000	0.998520
3230.000000	0.998531
3228.000000	0.998570
3226.000000	0.998658
3224.000000	0.998730
3222.000000	0.998725
3220.000000	0.998730
3218.000000	0.998803
3216.000000	0.998887
3214.000000	0.998962
3212.000000	0.998995
3210.000000	0.998922
3208.000000	0.998866
3206.000000	0.998921
3204.000000	0.998948
3202.000000	0.998930
3200.000000	0.998966
3198.000000	0.999004
3196.000000	0.999046
3194.000000	0.999043
3192.000000	0.999064
3190.000000	0.999091
3188.000000	0.999047
3186.000000	0.999085
3184.000000	0.999196
3182.000000	0.999205
3180.000000	0.999116
3178.000000	0.999157
3176.000000	0.999274
3174.000000	0.999329
3172.000000	0.999387
3170.000000	0.999382
3168.000000	0.999327
3166.000000	0.999303
3164.000000	0.999362
3162.000000	0.999452
3160.000000	0.999443
3158.000000	0.999439
3156.000000	0.999492
3154.000000	0.999549
3152.000000	0.999554
3150.000000	0.999531
3148.000000	0.999568
3146.000000	0.999634
3144.000000	0.999640
3142.000000	0.999614
3140.000000	0.999650
3138.000000	0.999708
3136.000000	0.999718
3134.000000	0.999747
3132.000000	0.999778
3130.000000	0.999722
3128.000000	0.999709
3126.000000	0.999841
3124.000000	0.999841
3122.000000	0.999773
3120.000000	0.999804
3118.000000	0.999884
3116.000000	0.999913
3114.000000	0.999879
3112.000000	0.999898
3110.000000	0.999988
3108.000000	1.000000
3106.000000	1.000006
3104.000000	1.000039
3102.000000	0.999981
3100.000000	0.999927
3098.000000	0.999993
3096.000000	1.000068
3094.000000	1.000122
3092.000000	1.000215
3090.000000	1.000203
3088.000000	1.000173
3086.000000	1.000194
3084.000000	1.000221
3082.000000	1.000219
3080.000000	1.000262
3078.000000	1.000356
3076.000000	1.000367
3074.000000	1.000270
3072.000000	1.000236
3070.000000	1.000226
3068.000000	1.000188
3066.000000	1.000249
3064.000000	1.000294
3062.000000	1.000291
3060.000000	1.000309
3058.000000	1.000317
3056.000000	1.000317
3054.000000	1.000263
3052.000000	1.000202
3050.000000	1.000146
3048.000000	1.000082
3046.000000	1.000097
3044.000000	1.000104
3042.000000	1.000104
3040.000000	1.000130
3038.000000	1.000131
3036.000000	1.000127
3034.000000	1.000124
3032.000000	1.000172
3030.000000	1.000205
3028.000000	1.000170
3026.000000	1.000160
3024.000000	1.000172
3022.000000	1.000106
3020.000000	1.000038
3018.000000	0.999967
3016.000000	0.999842
3014.000000	0.999719
3012.000000	0.999669
3010.000000	0.999644
3008.000000	0.999624
3006.000000	0.999601
3004.000000	0.999565
3002.000000	0.999610
3000.000000	0.999688
2998.000000	0.999683
2996.000000	0.999650
2994.000000	0.999665
2992.000000	0.999715
2990.000000	0.999738
2988.000000	0.999697
2986.000000	0.999630
2984.000000	0.999577
2982.000000	0.999518
2980.000000	0.999512
2978.000000	0.999598
2976.000000	0.999761
2974.000000	0.999898
2972.000000	1.000046
2970.000000	1.000258
2968.000000	1.000375
2966.000000	1.000314
2964.000000	1.000211
2962.000000	0.999993
2960.000000	0.999665
2958.000000	0.999341
2956.000000	0.998993
2954.000000	0.998730
2952.000000	0.998577
2950.000000	0.998435
2948.000000	0.998402
2946.000000	0.998393
2944.000000	0.998321
2942.000000	0.998237
2940.000000	0.998166
2938.000000	0.998070
2936.000000	0.997933
2934.000000	0.997723
2932.000000	0.997516
2930.000000	0.997369
2928.000000	0.997200
2926.000000	0.996919
2924.000000	0.996496
2922.000000	0.996118
2920.000000	0.995894
2918.000000	0.995783
2916.000000	0.995609
2914.000000	0.995409
2912.000000	0.995366
2910.000000	0.995352
2908.000000	0.995284
2906.000000	0.995259
2904.000000	0.995188
2902.000000	0.995024
2900.000000	0.994883
2898.000000	0.994774
2896.000000	0.994598
2894.000000	0.994295
2892.000000	0.994078
2890.000000	0.993966
2888.000000	0.993877
2886.000000	0.993770
2884.000000	0.993631
2882.000000	0.993494
2880.000000	0.993338
2878.000000	0.993199
2876.000000	0.993073
2874.000000	0.992962
2872.000000	0.992837
2870.000000	0.992663
2868.000000	0.992527
2866.000000	0.992396
2864.000000	0.992164
2862.000000	0.991839
2860.000000	0.991491
2858.000000	0.991167
2856.000000	0.990919
2854.000000	0.990727
2852.000000	0.990516
2850.000000	0.990269
2848.000000	0.990053
2846.000000	0.989930
2844.000000	0.989837
2842.000000	0.989717
2840.000000	0.989576
2838.000000	0.989439
2836.000000	0.989314
2834.000000	0.989274
2832.000000	0.989226
2830.000000	0.989085
2828.000000	0.988986
2826.000000	0.988892
2824.000000	0.988738
2822.000000	0.988517
2820.000000	0.988343
2818.000000	0.988260
2816.000000	0.988244
2814.000000	0.988159
2812.000000	0.987992
2810.000000	0.987817
2808.000000	0.987701
2806.000000	0.987655
2804.000000	0.987586
2802.000000	0.987409
2800.000000	0.987249
2798.000000	0.987154
2796.000000	0.987085
2794.000000	0.987000
2792.000000	0.986917
2790.000000	0.986818
2788.000000	0.986687
2786.000000	0.986597
2784.000000	0.986499
2782.000000	0.986394
2780.000000	0.986333
2778.000000	0.986304
2776.000000	0.986237
2774.000000	0.986139
2772.000000	0.986035
2770.000000	0.985990
2768.000000	0.985976
2766.000000	0.985935
2764.000000	0.985907
2762.000000	0.985826
2760.000000	0.985736
2758.000000	0.985656
2756.000000	0.985602
2754.000000	0.985538
2752.000000	0.985438
2750.000000	0.985341
2748.000000	0.985269
2746.000000	0.985217
2744.000000	0.985210
2742.000000	0.985285
2740.000000	0.985339
2738.000000	0.985307
2736.000000	0.985224
2734.000000	0.985155
2732.000000	0.985135
2730.000000	0.985142
2728.000000	0.985154
2726.000000	0.985145
2724.000000	0.985132
2722.000000	0.985110
2720.000000	0.985074
2718.000000	0.985060
2716.000000	0.985057
2714.000000	0.985090
2712.000000	0.985087
2710.000000	0.985055
2708.000000	0.985114
2706.000000	0.985120
2704.000000	0.985074
2702.000000	0.985123
2700.000000	0.985187
2698.000000	0.985195
2696.000000	0.985215
2694.000000	0.985312
2692.000000	0.985352
2690.000000	0.985362
2688.000000	0.985405
2686.000000	0.985441
2684.000000	0.985511
2682.000000	0.985598
2680.000000	0.985669
2678.000000	0.985679
2676.000000	0.985721
2674.000000	0.985781
2672.000000	0.985842
2670.000000	0.985961
2668.000000	0.986086
2666.000000	0.986138
2664.000000	0.986171
2662.000000	0.986221
2660.000000	0.986279
2658.000000	0.986304
2656.000000	0.986326
2654.000000	0.986410
2652.000000	0.986545
2650.000000	0.986677
2648.000000	0.986769
2646.000000	0.986875
2644.000000	0.986978
2642.000000	0.987038
2640.000000	0.987162
2638.000000	0.987237
2636.000000	0.987256
2634.000000	0.987380
2632.000000	0.987506
2630.000000	0.987597
2628.000000	0.987701
2626.000000	0.987863
2624.000000	0.987953
2622.000000	0.987969
2620.000000	0.988097
2618.000000	0.988268
2616.000000	0.988398
2614.000000	0.988492
2612.000000	0.988548
2610.000000	0.988649
2608.000000	0.988796
2606.000000	0.988844
2604.000000	0.988888
2602.000000	0.989013
2600.000000	0.989184
2598.000000	0.989306
2596.000000	0.989346
2594.000000	0.989467
2592.000000	0.989599
2590.000000	0.989696
2588.000000	0.989845
2586.000000	0.989924
2584.000000	0.989938
2582.000000	0.989972
2580.000000	0.990115
2578.000000	0.990315
2576.000000	0.990464
2574.000000	0.990563
2572.000000	0.990644
2570.000000	0.990714
2568.000000	0.990781
2566.000000	0.990838
2564.000000	0.990921
2562.000000	0.990991
2560.000000	0.991068
2558.000000	0.991155
2556.000000	0.991270
2554.000000	0.991388
2552.000000	0.991535
2550.000000	0.991667
2548.000000	0.991698
2546.000000	0.991775
2544.000000	0.991910
2542.000000	0.991988
2540.000000	0.992122
2538.000000	0.992277
2536.000000	0.992319
2534.000000	0.992415
2532.000000	0.992556
2530.000000	0.992712
2528.000000	0.992893
2526.000000	0.992965
2524.000000	0.992976
2522.000000	0.993048
2520.000000	0.993218
2518.000000	0.993333
2516.000000	0.993378
2514.000000	0.993465
2512.000000	0.993590
2510.000000	0.993676
2508.000000	0.993794
2506.000000	0.994008
2504.000000	0.994192
2502.000000	0.994278
2500.000000	0.994352
2498.000000	0.994507
2496.000000	0.994712
2494.000000	0.994880
2492.000000	0.995045
2490.000000	0.995257
2488.000000	0.995434
2486.000000	0.995578
2484.000000	0.995790
2482.000000	0.996051
2480.000000	0.996264
2478.000000	0.996402
2476.000000	0.996566
2474.000000	0.996742
2472.000000	0.996911
2470.000000	0.997121
2468.000000	0.997376
2466.000000	0.997612
2464.000000	0.997794
2462.000000	0.998008
2460.000000	0.998263
2458.000000	0.998400
2456.000000	0.998519
2454.000000	0.998678
2452.000000	0.998829
2450.000000	0.998994
2448.000000	0.999147
2446.000000	0.999277
2444.000000	0.999446
2442.000000	0.999556
2440.000000	0.999638
2438.000000	0.999713
2436.000000	0.999746
2434.000000	0.999817
2432.000000	0.999909
2430.000000	0.999917
2428.000000	0.999820
2426.000000	0.999756
2424.000000	0.999727
2422.000000	0.999667
2420.000000	0.999648
2418.000000	0.999590
2416.000000	0.999478
2414.000000	0.999368
2412.000000	0.999220
2410.000000	0.999058
2408.000000	0.998907
2406.000000	0.998839
2404.000000	0.998823
2402.000000	0.998772
2400.000000	0.998625
2398.000000	0.998523
2396.000000	0.998481
2394.000000	0.998536
2392.000000	0.998577
2390.000000	0.998530
2388.000000	0.998499
2386.000000	0.998535
2384.000000	0.998521
2382.000000	0.998509
2380.000000	0.998602
2378.000000	0.998724
2376.000000	0.998756
2374.000000	0.998755
2372.000000	0.998824
2370.000000	0.998838
2368.000000	0.998817
2366.000000	0.998850
2364.000000	0.998867
2362.000000	0.998874
2360.000000	0.998906
2358.000000	0.998949
2356.000000	0.998929
2354.000000	0.998885
2352.000000	0.998964
2350.000000	0.999235
2348.000000	0.999598
2346.000000	0.999926
2344.000000	1.000308
2342.000000	1.000774
2340.000000	1.000954
2338.000000	1.000662
2336.000000	1.000314
2334.000000	1.000155
2332.000000	1.000099
2330.000000	1.000109
2328.000000	1.000184
2326.000000	1.000290
2324.000000	1.000377
2322.000000	1.000433
2320.000000	1.000526
2318.000000	1.000654
2316.000000	1.000792
2314.000000	1.000859
2312.000000	1.000871
2310.000000	1.000911
2308.000000	1.001016
2306.000000	1.001186
2304.000000	1.001279
2302.000000	1.001321
2300.000000	1.001410
2298.000000	1.001567
2296.000000	1.001668
2294.000000	1.001727
2292.000000	1.001795
2290.000000	1.001912
2288.000000	1.002021
2286.000000	1.002048
2284.000000	1.002059
2282.000000	1.002142
2280.000000	1.002274
2278.000000	1.002388
2276.000000	1.002463
2274.000000	1.002568
2272.000000	1.002675
2270.000000	1.002728
2268.000000	1.002763
2266.000000	1.002751
2264.000000	1.002814
2262.000000	1.002914
2260.000000	1.003011
2258.000000	1.003128
2256.000000	1.003255
2254.000000	1.003320
2252.000000	1.003294
2250.000000	1.003290
2248.000000	1.003326
2246.000000	1.003379
2244.000000	1.003482
2242.000000	1.003543
2240.000000	1.003602
2238.000000	1.003660
2236.000000	1.003622
2234.000000	1.003594
2232.000000	1.003627
2230.000000	1.003693
2228.000000	1.003756
2226.000000	1.003764
2224.000000	1.003755
2222.000000	1.003827
2220.000000	1.003921
2218.000000	1.003887
2216.000000	1.003827
2214.000000	1.003853
2212.000000	1.003896
2210.000000	1.003897
2208.000000	1.003916
2206.000000	1.003938
2204.000000	1.003899
2202.000000	1.003829
2200.000000	1.003761
2198.000000	1.003707
2196.000000	1.003664
2194.000000	1.003664
2192.000000	1.003681
2190.000000	1.003679
2188.000000	1.003658
2186.000000	1.003567
2184.000000	1.003441
2182.000000	1.003390
2180.000000	1.003420
2178.000000	1.003385
2176.000000	1.003311
2174.000000	1.003284
2172.000000	1.003253
2170.000000	1.003158
2168.000000	1.003033
2166.000000	1.002927
2164.000000	1.002889
2162.000000	1.002873
2160.000000	1.002834
2158.000000	1.002742
2156.000000	1.002624
2154.000000	1.002517
2152.000000	1.002414
2150.000000	1.002290
2148.000000	1.002179
2146.000000	1.002122
2144.000000	1.002030
2142.000000	1.001942
2140.000000	1.001844
2138.000000	1.001713
2136.000000	1.001605
2134.000000	1.001517
2132.000000	1.001370
2130.000000	1.001196
2128.000000	1.001049
2126.000000	1.000969
2124.000000	1.000928
2122.000000	1.000813
2120.000000	1.000732
2118.000000	1.000598
2116.000000	1.000444
2114.000000	1.000382
2112.000000	1.000290
2110.000000	1.000096
2108.000000	0.999947
2106.000000	0.999859
2104.000000	0.999724
2102.000000	0.999485
2100.000000	0.999293
2098.000000	0.999244
2096.000000	0.999193
2094.000000	0.999081
2092.000000	0.998962
2090.000000	0.998783
2088.000000	0.998594
2086.000000	0.998473
2084.000000	0.998363
2082.000000	0.998260
2080.000000	0.998145
2078.000000	0.998023
2076.000000	0.997867
2074.000000	0.997683
2072.000000	0.997563
2070.000000	0.997446
2068.000000	0.997313
2066.000000	0.997171
2064.000000	0.997025
2062.000000	0.996951
2060.000000	0.996894
2058.000000	0.996731
2056.000000	0.996525
2054.000000	0.996394
2052.000000	0.996322
2050.000000	0.996228
2048.000000	0.996066
2046.000000	0.995905
2044.000000	0.995843
2042.000000	0.995765
2040.000000	0.995639
2038.000000	0.995528
2036.000000	0.995357
2034.000000	0.995205
2032.000000	0.995121
2030.000000	0.995007
2028.000000	0.994890
2026.000000	0.994875
2024.000000	0.994792
2022.000000	0.994665
2020.000000	0.994489
2018.000000	0.994304
2016.000000	0.994194
2014.000000	0.994132
2012.000000	0.994042
2010.000000	0.993949
2008.000000	0.993872
2006.000000	0.993798
2004.000000	0.993691
2002.000000	0.993601
2000.000000	0.993485
1998.000000	0.993430
1996.000000	0.993386
1994.000000	0.993272
1992.000000	0.993156
1990.000000	0.993059
1988.000000	0.993004
1986.000000	0.992937
1984.000000	0.992886
1982.000000	0.992905
1980.000000	0.992895
1978.000000	0.992839
1976.000000	0.992772
1974.000000	0.992709
1972.000000	0.992650
1970.000000	0.992620
1968.000000	0.992582
1966.000000	0.992564
1964.000000	0.992564
1962.000000	0.992583
1960.000000	0.992616
1958.000000	0.992606
1956.000000	0.992565
1954.000000	0.992519
1952.000000	0.992544
1950.000000	0.992515
1948.000000	0.992477
1946.000000	0.992518
1944.000000	0.992552
1942.000000	0.992586
1940.000000	0.992646
1938.000000	0.992604
1936.000000	0.992520
1934.000000	0.992555
1932.000000	0.992667
1930.000000	0.992698
1928.000000	0.992773
1926.000000	0.992872
1924.000000	0.992858
1922.000000	0.992807
1920.000000	0.992862
1918.000000	0.992837
1916.000000	0.992864
1914.000000	0.993019
1912.000000	0.993083
1910.000000	0.993143
1908.000000	0.993158
1906.000000	0.993150
1904.000000	0.993225
1902.000000	0.993339
1900.000000	0.993418
1898.000000	0.993515
1896.000000	0.993564
1894.000000	0.993620
1892.000000	0.993709
1890.000000	0.993691
1888.000000	0.993701
1886.000000	0.993834
1884.000000	0.993919
1882.000000	0.993999
1880.000000	0.994044
1878.000000	0.994101
1876.000000	0.994199
1874.000000	0.994327
1872.000000	0.994433
1870.000000	0.994441
1868.000000	0.994380
1866.000000	0.994480
1864.000000	0.994615
1862.000000	0.994694
1860.000000	0.994796
1858.000000	0.994900
1856.000000	0.994995
1854.000000	0.995097
1852.000000	0.995138
1850.000000	0.995201
1848.000000	0.995354
1846.000000	0.995558
1844.000000	0.995522
1842.000000	0.995500
1840.000000	0.995661
1838.000000	0.995834
1836.000000	0.996003
1834.000000	0.996144
1832.000000	0.996307
1830.000000	0.996320
1828.000000	0.996397
1826.000000	0.996636
1824.000000	0.996746
1822.000000	0.996923
1820.000000	0.997156
1818.000000	0.997347
1816.000000	0.997411
1814.000000	0.997471
1812.000000	0.997633
1810.000000	0.997790
1808.000000	0.997917
1806.000000	0.998052
1804.000000	0.998222
1802.000000	0.998445
1800.000000	0.998639
1798.000000	0.998794
1796.000000	0.998997
1794.000000	0.999131
1792.000000	0.999014
1790.000000	0.999090
1788.000000	0.999399
1786.000000	0.999661
1784.000000	0.999822
1782.000000	1.000011
1780.000000	1.000158
1778.000000	1.000318
1776.000000	1.000612
1774.000000	1.000874
1772.000000	1.000821
1770.000000	1.001005
1768.000000	1.001290
1766.000000	1.001531
1764.000000	1.001912
1762.000000	1.002010
1760.000000	1.002064
1758.000000	1.002294
1756.000000	1.002508
1754.000000	1.002885
1752.000000	1.003079
1750.000000	1.003062
1748.000000	1.003246
1746.000000	1.003507
1744.000000	1.003798
1742.000000	1.004039
1740.000000	1.004131
1738.000000	1.004237
1736.000000	1.004571
1734.000000	1.004368
1732.000000	1.004363
1730.000000	1.004829
1728.000000	1.005068
1726.000000	1.005243
1724.000000	1.005380
1722.000000	1.005578
1720.000000	1.005838
1718.000000	1.005697
1716.000000	1.005450
1714.000000	1.005599
1712.000000	1.005821
1710.000000	1.006122
1708.000000	1.006283
1706.000000	1.006316
1704.000000	1.006452
1702.000000	1.006736
1700.000000	1.006272
1698.000000	1.006371
1696.000000	1.006479
1694.000000	1.006297
1692.000000	1.006650
1690.000000	1.006852
1688.000000	1.007153
1686.000000	1.007339
1684.000000	1.006662
1682.000000	1.006485
1680.000000	1.006984
1678.000000	1.007262
1676.000000	1.007243
1674.000000	1.007126
1672.000000	1.007430
1670.000000	1.007380
1668.000000	1.007144
1666.000000	1.007280
1664.000000	1.007467
1662.000000	1.007439
1660.000000	1.007577
1658.000000	1.007805
1656.000000	1.008194
1654.000000	1.007963
1652.000000	1.007008
1650.000000	1.007301
1648.000000	1.007859
1646.000000	1.007660
1644.000000	1.007598
1642.000000	1.007795
1640.000000	1.007935
1638.000000	1.008134
1636.000000	1.007904
1634.000000	1.007601
1632.000000	1.007841
1630.000000	1.008013
1628.000000	1.008026
1626.000000	1.008043
1624.000000	1.007975
1622.000000	1.007744
1620.000000	1.007891
1618.000000	1.008028
1616.000000	1.007777
1614.000000	1.007966
1612.000000	1.008261
1610.000000	1.008209
1608.000000	1.008104
1606.000000	1.007967
1604.000000	1.007855
1602.000000	1.007778
1600.000000	1.007841
1598.000000	1.007910
1596.000000	1.007996
1594.000000	1.008079
1592.000000	1.008144
1590.000000	1.008188
1588.000000	1.008215
1586.000000	1.008241
1584.000000	1.008248
1582.000000	1.008236
1580.000000	1.008298
1578.000000	1.008394
1576.000000	1.008061
1574.000000	1.008016
1572.000000	1.008425
1570.000000	1.008367
1568.000000	1.008224
1566.000000	1.008353
1564.000000	1.008654
1562.000000	1.009097
1560.000000	1.008752
1558.000000	1.007871
1556.000000	1.008097
1554.000000	1.008363
1552.000000	1.008483
1550.000000	1.008590
1548.000000	1.008620
1546.000000	1.008744
1544.000000	1.008858
1542.000000	1.009029
1540.000000	1.008737
1538.000000	1.008355
1536.000000	1.008728
1534.000000	1.008855
1532.000000	1.008801
1530.000000	1.009006
1528.000000	1.009085
1526.000000	1.009068
1524.000000	1.009191
1522.000000	1.009129
1520.000000	1.008858
1518.000000	1.009092
1516.000000	1.009153
1514.000000	1.009108
1512.000000	1.009200
1510.000000	1.009397
1508.000000	1.009441
1506.000000	1.008988
1504.000000	1.009071
1502.000000	1.009874
1500.000000	1.010574
1498.000000	1.010731
1496.000000	1.009974
1494.000000	1.009016
1492.000000	1.008440
1490.000000	1.008156
1488.000000	1.008152
1486.000000	1.008391
1484.000000	1.008664
1482.000000	1.008821
1480.000000	1.008974
1478.000000	1.009120
1476.000000	1.009237
1474.000000	1.009282
1472.000000	1.009111
1470.000000	1.009032
1468.000000	1.009134
1466.000000	1.009156
1464.000000	1.009035
1462.000000	1.009091
1460.000000	1.009387
1458.000000	1.009454
1456.000000	1.009041
1454.000000	1.009137
1452.000000	1.009179
1450.000000	1.008664
1448.000000	1.008289
1446.000000	1.008347
1444.000000	1.008602
1442.000000	1.008716
1440.000000	1.008696
1438.000000	1.008598
1436.000000	1.008297
1434.000000	1.008305
1432.000000	1.008542
1430.000000	1.008567
1428.000000	1.008484
1426.000000	1.008445
1424.000000	1.008347
1422.000000	1.008295
1420.000000	1.008195
1418.000000	1.007957
1416.000000	1.008047
1414.000000	1.008170
1412.000000	1.008258
1410.000000	1.008338
1408.000000	1.008361
1406.000000	1.008198
1404.000000	1.007956
1402.000000	1.007744
1400.000000	1.007480
1398.000000	1.007243
1396.000000	1.007216
1394.000000	1.007031
1392.000000	1.007009
1390.000000	1.007182
1388.000000	1.007261
1386.000000	1.007201
1384.000000	1.007120
1382.000000	1.007039
1380.000000	1.007005
1378.000000	1.006886
1376.000000	1.006754
1374.000000	1.006604
1372.000000	1.006503
1370.000000	1.006408
1368.000000	1.006291
1366.000000	1.006288
1364.000000	1.006288
1362.000000	1.006168
1360.000000	1.006067
1358.000000	1.006084
1356.000000	1.006019
1354.000000	1.005885
1352.000000	1.005741
1350.000000	1.005642
1348.000000	1.005596
1346.000000	1.005543
1344.000000	1.005575
1342.000000	1.005562
1340.000000	1.005344
1338.000000	1.005181
1336.000000	1.005061
1334.000000	1.004910
1332.000000	1.004854
1330.000000	1.004748
1328.000000	1.004648
1326.000000	1.004565
1324.000000	1.004494
1322.000000	1.004455
1320.000000	1.004477
1318.000000	1.004430
1316.000000	1.004335
1314.000000	1.004306
1312.000000	1.004226
1310.000000	1.004093
1308.000000	1.004062
1306.000000	1.004014
1304.000000	1.003878
1302.000000	1.003782
1300.000000	1.003785
1298.000000	1.003828
1296.000000	1.003746
1294.000000	1.003661
1292.000000	1.003707
1290.000000	1.003631
1288.000000	1.003518
1286.000000	1.003411
1284.000000	1.003411
1282.000000	1.003344
1280.000000	1.003186
1278.000000	1.003078
1276.000000	1.003220
1274.000000	1.003444
1272.000000	1.003708
1270.000000	1.004194
1268.000000	1.004866
1266.000000	1.005699
1264.000000	1.006619
1262.000000	1.007208
1260.000000	1.007028
1258.000000	1.006322
1256.000000	1.005424
1254.000000	1.004611
1252.000000	1.004198
1250.000000	1.003820
1248.000000	1.003599
1246.000000	1.003556
1244.000000	1.003420
1242.000000	1.003412
1240.000000	1.003434
1238.000000	1.003310
1236.000000	1.003347
1234.000000	1.003428
1232.000000	1.003388
1230.000000	1.003315
1228.000000	1.003316
1226.000000	1.003301
1224.000000	1.003262
1222.000000	1.003192
1220.000000	1.003198
1218.000000	1.003330
1216.000000	1.003251
1214.000000	1.003262
1212.000000	1.003366
1210.000000	1.003380
1208.000000	1.003335
1206.000000	1.003334
1204.000000	1.003471
1202.000000	1.003571
1200.000000	1.003674
1198.000000	1.003747
1196.000000	1.003728
1194.000000	1.003588
1192.000000	1.003547
1190.000000	1.003633
1188.000000	1.003740
1186.000000	1.004010
1184.000000	1.004409
1182.000000	1.004641
1180.000000	1.004582
1178.000000	1.004719
1176.000000	1.005037
1174.000000	1.005084
1172.000000	1.005082
1170.000000	1.005136
1168.000000	1.005076
1166.000000	1.005054
1164.000000	1.005183
1162.000000	1.005449
1160.000000	1.005760
1158.000000	1.005850
1156.000000	1.006017
1154.000000	1.006303
1152.000000	1.006282
1150.000000	1.005935
1148.000000	1.005803
1146.000000	1.005920
1144.000000	1.006038
1142.000000	1.006160
1140.000000	1.006320
1138.000000	1.006440
1136.000000	1.006524
1134.000000	1.006695
1132.000000	1.006690
1130.000000	1.006573
1128.000000	1.006544
1126.000000	1.006397
1124.000000	1.006261
1122.000000	1.006305
1120.000000	1.006734
1118.000000	1.007254
1116.000000	1.007686
1114.000000	1.008052
1112.000000	1.008191
1110.000000	1.008327
1108.000000	1.008700
1106.000000	1.008986
1104.000000	1.009107
1102.000000	1.008979
1100.000000	1.008696
1098.000000	1.008882
1096.000000	1.009205
1094.000000	1.009193
1092.000000	1.009262
1090.000000	1.009392
1088.000000	1.009509
1086.000000	1.009641
1084.000000	1.009423
1082.000000	1.008953
1080.000000	1.008598
1078.000000	1.008264
1076.000000	1.007593
1074.000000	1.006912
1072.000000	1.006833
1070.000000	1.006977
1068.000000	1.006526
1066.000000	1.005528
1064.000000	1.004959
1062.000000	1.004318
1060.000000	1.003384
1058.000000	1.002872
1056.000000	1.002552
1054.000000	1.002230
1052.000000	1.002005
1050.000000	1.001202
1048.000000	1.000471
1046.000000	1.000032
1044.000000	0.999316
1042.000000	0.998648
1040.000000	0.998453
1038.000000	0.997688
1036.000000	0.996654
1034.000000	0.996025
1032.000000	0.995781
1030.000000	0.995644
1028.000000	0.995511
1026.000000	0.995830
1024.000000	0.995869
1022.000000	0.995718
1020.000000	0.995351
1018.000000	0.995372
1016.000000	0.994923
1014.000000	0.993694
1012.000000	0.992416
1010.000000	0.991331
1008.000000	0.990931
1006.000000	0.990467
1004.000000	0.990261
1002.000000	0.990438
1000.000000	0.990917
