PE IR       SUBTECH     SPECTRUM    ASCII       PEDS        4.00        
   -1
TE109A_081_160K.ASC
20/04/21
21:38:07.00
20/04/21
21:38:07.00
Administrator
TE109A, Tuesday, April 21 2020, 081.
1000.000000
#HDR
-1
-1
#GR
cm-1
A
1.0
0.0
6000.000000
-2.000000
2501
8
0.976698
0.899852
#DATA
6000.000000	0.905738
5998.000000	0.905793
5996.000000	0.905679
5994.000000	0.905524
5992.000000	0.905451
5990.000000	0.905519
5988.000000	0.905513
5986.000000	0.905724
5984.000000	0.905786
5982.000000	0.905860
5980.000000	0.905825
5978.000000	0.905835
5976.000000	0.906086
5974.000000	0.906067
5972.000000	0.905866
5970.000000	0.905741
5968.000000	0.906004
5966.000000	0.906405
5964.000000	0.906470
5962.000000	0.906192
5960.000000	0.905842
5958.000000	0.905591
5956.000000	0.905443
5954.000000	0.905336
5952.000000	0.905593
5950.000000	0.905638
5948.000000	0.905506
5946.000000	0.905306
5944.000000	0.905183
5942.000000	0.905459
5940.000000	0.905584
5938.000000	0.905535
5936.000000	0.905423
5934.000000	0.905527
5932.000000	0.905970
5930.000000	0.906146
5928.000000	0.906174
5926.000000	0.906087
5924.000000	0.906049
5922.000000	0.905871
5920.000000	0.905787
5918.000000	0.905642
5916.000000	0.905517
5914.000000	0.905503
5912.000000	0.905696
5910.000000	0.905998
5908.000000	0.906096
5906.000000	0.905953
5904.000000	0.906038
5902.000000	0.906222
5900.000000	0.906209
5898.000000	0.906138
5896.000000	0.906005
5894.000000	0.905964
5892.000000	0.905942
5890.000000	0.905886
5888.000000	0.906102
5886.000000	0.906211
5884.000000	0.906196
5882.000000	0.906179
5880.000000	0.906352
5878.000000	0.906432
5876.000000	0.906341
5874.000000	0.906305
5872.000000	0.906439
5870.000000	0.906523
5868.000000	0.906360
5866.000000	0.906184
5864.000000	0.906200
5862.000000	0.906357
5860.000000	0.906434
5858.000000	0.906529
5856.000000	0.906511
5854.000000	0.906379
5852.000000	0.906188
5850.000000	0.906351
5848.000000	0.906562
5846.000000	0.906457
5844.000000	0.906115
5842.000000	0.905880
5840.000000	0.905908
5838.000000	0.906070
5836.000000	0.906220
5834.000000	0.906489
5832.000000	0.906639
5830.000000	0.906596
5828.000000	0.906634
5826.000000	0.906575
5824.000000	0.906639
5822.000000	0.906834
5820.000000	0.906906
5818.000000	0.906802
5816.000000	0.906705
5814.000000	0.906877
5812.000000	0.906971
5810.000000	0.906809
5808.000000	0.906788
5806.000000	0.906913
5804.000000	0.906845
5802.000000	0.906884
5800.000000	0.906965
5798.000000	0.907041
5796.000000	0.906643
5794.000000	0.906325
5792.000000	0.906405
5790.000000	0.906599
5788.000000	0.906697
5786.000000	0.906897
5784.000000	0.907096
5782.000000	0.907182
5780.000000	0.907056
5778.000000	0.906798
5776.000000	0.906727
5774.000000	0.906760
5772.000000	0.906822
5770.000000	0.906825
5768.000000	0.906658
5766.000000	0.906665
5764.000000	0.906821
5762.000000	0.906893
5760.000000	0.907065
5758.000000	0.907167
5756.000000	0.907314
5754.000000	0.907246
5752.000000	0.907038
5750.000000	0.906980
5748.000000	0.907125
5746.000000	0.907322
5744.000000	0.907236
5742.000000	0.907121
5740.000000	0.907048
5738.000000	0.907114
5736.000000	0.907125
5734.000000	0.907187
5732.000000	0.907133
5730.000000	0.907053
5728.000000	0.906903
5726.000000	0.906963
5724.000000	0.907387
5722.000000	0.907682
5720.000000	0.907883
5718.000000	0.907779
5716.000000	0.907559
5714.000000	0.907498
5712.000000	0.907599
5710.000000	0.907820
5708.000000	0.907870
5706.000000	0.907796
5704.000000	0.907782
5702.000000	0.907836
5700.000000	0.907713
5698.000000	0.907657
5696.000000	0.907589
5694.000000	0.907610
5692.000000	0.907646
5690.000000	0.907711
5688.000000	0.907805
5686.000000	0.907869
5684.000000	0.907955
5682.000000	0.907925
5680.000000	0.907804
5678.000000	0.907481
5676.000000	0.907487
5674.000000	0.907687
5672.000000	0.907800
5670.000000	0.907845
5668.000000	0.907811
5666.000000	0.908008
5664.000000	0.908091
5662.000000	0.907863
5660.000000	0.907753
5658.000000	0.907953
5656.000000	0.908280
5654.000000	0.908448
5652.000000	0.908542
5650.000000	0.908559
5648.000000	0.908530
5646.000000	0.908297
5644.000000	0.908177
5642.000000	0.908058
5640.000000	0.907766
5638.000000	0.907708
5636.000000	0.907942
5634.000000	0.908262
5632.000000	0.908227
5630.000000	0.908019
5628.000000	0.907956
5626.000000	0.908109
5624.000000	0.908360
5622.000000	0.908497
5620.000000	0.908499
5618.000000	0.908355
5616.000000	0.908428
5614.000000	0.908555
5612.000000	0.908504
5610.000000	0.908269
5608.000000	0.908247
5606.000000	0.908428
5604.000000	0.908477
5602.000000	0.908419
5600.000000	0.908343
5598.000000	0.908251
5596.000000	0.908263
5594.000000	0.908421
5592.000000	0.908562
5590.000000	0.908565
5588.000000	0.908535
5586.000000	0.908563
5584.000000	0.908529
5582.000000	0.908545
5580.000000	0.908582
5578.000000	0.908628
5576.000000	0.908579
5574.000000	0.908624
5572.000000	0.908563
5570.000000	0.908395
5568.000000	0.908359
5566.000000	0.908464
5564.000000	0.908409
5562.000000	0.908369
5560.000000	0.908396
5558.000000	0.908759
5556.000000	0.908823
5554.000000	0.908693
5552.000000	0.908548
5550.000000	0.908559
5548.000000	0.908583
5546.000000	0.908558
5544.000000	0.908772
5542.000000	0.908955
5540.000000	0.908856
5538.000000	0.908649
5536.000000	0.908575
5534.000000	0.908674
5532.000000	0.908587
5530.000000	0.908507
5528.000000	0.908601
5526.000000	0.908634
5524.000000	0.908643
5522.000000	0.908730
5520.000000	0.908900
5518.000000	0.908996
5516.000000	0.908915
5514.000000	0.908830
5512.000000	0.908927
5510.000000	0.908943
5508.000000	0.908842
5506.000000	0.908715
5504.000000	0.908879
5502.000000	0.909197
5500.000000	0.909202
5498.000000	0.909085
5496.000000	0.909017
5494.000000	0.908998
5492.000000	0.908993
5490.000000	0.908965
5488.000000	0.909050
5486.000000	0.909106
5484.000000	0.909165
5482.000000	0.909197
5480.000000	0.909126
5478.000000	0.908998
5476.000000	0.908916
5474.000000	0.909015
5472.000000	0.909164
5470.000000	0.909208
5468.000000	0.909207
5466.000000	0.909230
5464.000000	0.909133
5462.000000	0.908842
5460.000000	0.908675
5458.000000	0.908784
5456.000000	0.909094
5454.000000	0.909223
5452.000000	0.909197
5450.000000	0.909054
5448.000000	0.908917
5446.000000	0.908876
5444.000000	0.908851
5442.000000	0.909055
5440.000000	0.909260
5438.000000	0.909152
5436.000000	0.908929
5434.000000	0.908946
5432.000000	0.909262
5430.000000	0.909332
5428.000000	0.909259
5426.000000	0.909233
5424.000000	0.909201
5422.000000	0.909141
5420.000000	0.909150
5418.000000	0.909197
5416.000000	0.909220
5414.000000	0.909168
5412.000000	0.909175
5410.000000	0.909221
5408.000000	0.909437
5406.000000	0.909662
5404.000000	0.909772
5402.000000	0.909625
5400.000000	0.909385
5398.000000	0.909248
5396.000000	0.909377
5394.000000	0.909586
5392.000000	0.909600
5390.000000	0.909470
5388.000000	0.909468
5386.000000	0.909522
5384.000000	0.909567
5382.000000	0.909619
5380.000000	0.909711
5378.000000	0.909720
5376.000000	0.909484
5374.000000	0.909299
5372.000000	0.909332
5370.000000	0.909527
5368.000000	0.909767
5366.000000	0.909809
5364.000000	0.909700
5362.000000	0.909520
5360.000000	0.909568
5358.000000	0.909765
5356.000000	0.909859
5354.000000	0.909882
5352.000000	0.909850
5350.000000	0.909870
5348.000000	0.909783
5346.000000	0.909778
5344.000000	0.909783
5342.000000	0.909741
5340.000000	0.909697
5338.000000	0.909857
5336.000000	0.910099
5334.000000	0.910032
5332.000000	0.909841
5330.000000	0.909795
5328.000000	0.910011
5326.000000	0.910101
5324.000000	0.909971
5322.000000	0.909952
5320.000000	0.910111
5318.000000	0.910377
5316.000000	0.910569
5314.000000	0.910633
5312.000000	0.910519
5310.000000	0.910283
5308.000000	0.910233
5306.000000	0.910409
5304.000000	0.910727
5302.000000	0.910859
5300.000000	0.910771
5298.000000	0.910673
5296.000000	0.910553
5294.000000	0.910499
5292.000000	0.910597
5290.000000	0.910813
5288.000000	0.910811
5286.000000	0.910558
5284.000000	0.910476
5282.000000	0.910662
5280.000000	0.910857
5278.000000	0.911026
5276.000000	0.911090
5274.000000	0.911207
5272.000000	0.911267
5270.000000	0.911232
5268.000000	0.911130
5266.000000	0.911046
5264.000000	0.911131
5262.000000	0.911397
5260.000000	0.911618
5258.000000	0.911586
5256.000000	0.911486
5254.000000	0.911600
5252.000000	0.911721
5250.000000	0.911689
5248.000000	0.911752
5246.000000	0.911903
5244.000000	0.911999
5242.000000	0.912043
5240.000000	0.912136
5238.000000	0.912135
5236.000000	0.912205
5234.000000	0.912439
5232.000000	0.912685
5230.000000	0.912754
5228.000000	0.912772
5226.000000	0.912772
5224.000000	0.912885
5222.000000	0.913105
5220.000000	0.913265
5218.000000	0.913368
5216.000000	0.913413
5214.000000	0.913344
5212.000000	0.913167
5210.000000	0.913275
5208.000000	0.913582
5206.000000	0.913778
5204.000000	0.913824
5202.000000	0.913902
5200.000000	0.913869
5198.000000	0.913892
5196.000000	0.914141
5194.000000	0.914346
5192.000000	0.914289
5190.000000	0.914252
5188.000000	0.914516
5186.000000	0.914821
5184.000000	0.914992
5182.000000	0.915139
5180.000000	0.915309
5178.000000	0.915452
5176.000000	0.915522
5174.000000	0.915522
5172.000000	0.915354
5170.000000	0.915180
5168.000000	0.915169
5166.000000	0.915392
5164.000000	0.915584
5162.000000	0.915692
5160.000000	0.915824
5158.000000	0.916036
5156.000000	0.916250
5154.000000	0.916374
5152.000000	0.916428
5150.000000	0.916496
5148.000000	0.916548
5146.000000	0.916650
5144.000000	0.916889
5142.000000	0.917142
5140.000000	0.917206
5138.000000	0.917159
5136.000000	0.917274
5134.000000	0.917460
5132.000000	0.917602
5130.000000	0.917681
5128.000000	0.917869
5126.000000	0.918048
5124.000000	0.918175
5122.000000	0.918300
5120.000000	0.918444
5118.000000	0.918472
5116.000000	0.918401
5114.000000	0.918369
5112.000000	0.918468
5110.000000	0.918576
5108.000000	0.918632
5106.000000	0.918734
5104.000000	0.918986
5102.000000	0.919287
5100.000000	0.919502
5098.000000	0.919593
5096.000000	0.919599
5094.000000	0.919534
5092.000000	0.919502
5090.000000	0.919478
5088.000000	0.919499
5086.000000	0.919633
5084.000000	0.919819
5082.000000	0.919933
5080.000000	0.919980
5078.000000	0.920095
5076.000000	0.920212
5074.000000	0.920254
5072.000000	0.920216
5070.000000	0.920166
5068.000000	0.920358
5066.000000	0.920524
5064.000000	0.920541
5062.000000	0.920373
5060.000000	0.920350
5058.000000	0.920510
5056.000000	0.920699
5054.000000	0.920779
5052.000000	0.920783
5050.000000	0.920845
5048.000000	0.920797
5046.000000	0.920639
5044.000000	0.920644
5042.000000	0.920835
5040.000000	0.921170
5038.000000	0.921434
5036.000000	0.921516
5034.000000	0.921398
5032.000000	0.921307
5030.000000	0.921237
5028.000000	0.921320
5026.000000	0.921620
5024.000000	0.921896
5022.000000	0.921893
5020.000000	0.921762
5018.000000	0.921679
5016.000000	0.921662
5014.000000	0.921603
5012.000000	0.921496
5010.000000	0.921604
5008.000000	0.921832
5006.000000	0.921939
5004.000000	0.921986
5002.000000	0.922060
5000.000000	0.921950
4998.000000	0.921857
4996.000000	0.921993
4994.000000	0.922112
4992.000000	0.922011
4990.000000	0.921940
4988.000000	0.921990
4986.000000	0.922001
4984.000000	0.921937
4982.000000	0.921942
4980.000000	0.922090
4978.000000	0.922181
4976.000000	0.922053
4974.000000	0.921838
4972.000000	0.921711
4970.000000	0.921764
4968.000000	0.921830
4966.000000	0.921814
4964.000000	0.921798
4962.000000	0.921883
4960.000000	0.921974
4958.000000	0.921901
4956.000000	0.921818
4954.000000	0.921844
4952.000000	0.921923
4950.000000	0.921876
4948.000000	0.921797
4946.000000	0.921803
4944.000000	0.921768
4942.000000	0.921822
4940.000000	0.921879
4938.000000	0.921789
4936.000000	0.921649
4934.000000	0.921638
4932.000000	0.921742
4930.000000	0.921876
4928.000000	0.921935
4926.000000	0.921821
4924.000000	0.921740
4922.000000	0.921774
4920.000000	0.921824
4918.000000	0.921886
4916.000000	0.921885
4914.000000	0.921860
4912.000000	0.921893
4910.000000	0.921847
4908.000000	0.921618
4906.000000	0.921484
4904.000000	0.921610
4902.000000	0.921797
4900.000000	0.921863
4898.000000	0.921754
4896.000000	0.921623
4894.000000	0.921535
4892.000000	0.921505
4890.000000	0.921460
4888.000000	0.921371
4886.000000	0.921232
4884.000000	0.921244
4882.000000	0.921322
4880.000000	0.921319
4878.000000	0.921236
4876.000000	0.921199
4874.000000	0.921093
4872.000000	0.920991
4870.000000	0.921041
4868.000000	0.921131
4866.000000	0.921107
4864.000000	0.920994
4862.000000	0.920950
4860.000000	0.920973
4858.000000	0.921022
4856.000000	0.920959
4854.000000	0.920857
4852.000000	0.920760
4850.000000	0.920719
4848.000000	0.920695
4846.000000	0.920675
4844.000000	0.920594
4842.000000	0.920501
4840.000000	0.920367
4838.000000	0.920232
4836.000000	0.920226
4834.000000	0.920245
4832.000000	0.920073
4830.000000	0.919775
4828.000000	0.919723
4826.000000	0.919874
4824.000000	0.919917
4822.000000	0.919769
4820.000000	0.919630
4818.000000	0.919597
4816.000000	0.919631
4814.000000	0.919655
4812.000000	0.919499
4810.000000	0.919302
4808.000000	0.919239
4806.000000	0.919211
4804.000000	0.919090
4802.000000	0.918933
4800.000000	0.918872
4798.000000	0.918862
4796.000000	0.918838
4794.000000	0.918749
4792.000000	0.918675
4790.000000	0.918521
4788.000000	0.918298
4786.000000	0.918076
4784.000000	0.917904
4782.000000	0.917778
4780.000000	0.917806
4778.000000	0.917809
4776.000000	0.917619
4774.000000	0.917372
4772.000000	0.917351
4770.000000	0.917358
4768.000000	0.917236
4766.000000	0.917090
4764.000000	0.916994
4762.000000	0.916890
4760.000000	0.916785
4758.000000	0.916643
4756.000000	0.916429
4754.000000	0.916246
4752.000000	0.916069
4750.000000	0.915893
4748.000000	0.915861
4746.000000	0.915947
4744.000000	0.915957
4742.000000	0.915861
4740.000000	0.915655
4738.000000	0.915396
4736.000000	0.915221
4734.000000	0.915191
4732.000000	0.915219
4730.000000	0.915196
4728.000000	0.915040
4726.000000	0.914834
4724.000000	0.914753
4722.000000	0.914742
4720.000000	0.914669
4718.000000	0.914601
4716.000000	0.914517
4714.000000	0.914391
4712.000000	0.914226
4710.000000	0.914136
4708.000000	0.914059
4706.000000	0.913956
4704.000000	0.913838
4702.000000	0.913798
4700.000000	0.913799
4698.000000	0.913721
4696.000000	0.913538
4694.000000	0.913327
4692.000000	0.913207
4690.000000	0.913147
4688.000000	0.913106
4686.000000	0.913015
4684.000000	0.912888
4682.000000	0.912718
4680.000000	0.912592
4678.000000	0.912484
4676.000000	0.912382
4674.000000	0.912308
4672.000000	0.912272
4670.000000	0.912296
4668.000000	0.912325
4666.000000	0.912250
4664.000000	0.912125
4662.000000	0.912081
4660.000000	0.912007
4658.000000	0.911814
4656.000000	0.911678
4654.000000	0.911751
4652.000000	0.911931
4650.000000	0.911946
4648.000000	0.911787
4646.000000	0.911632
4644.000000	0.911610
4642.000000	0.911658
4640.000000	0.911663
4638.000000	0.911534
4636.000000	0.911409
4634.000000	0.911404
4632.000000	0.911425
4630.000000	0.911292
4628.000000	0.911151
4626.000000	0.911147
4624.000000	0.911243
4622.000000	0.911285
4620.000000	0.911195
4618.000000	0.911053
4616.000000	0.911093
4614.000000	0.911170
4612.000000	0.911032
4610.000000	0.910925
4608.000000	0.911005
4606.000000	0.911046
4604.000000	0.910906
4602.000000	0.910745
4600.000000	0.910600
4598.000000	0.910509
4596.000000	0.910464
4594.000000	0.910518
4592.000000	0.910621
4590.000000	0.910685
4588.000000	0.910605
4586.000000	0.910472
4584.000000	0.910423
4582.000000	0.910415
4580.000000	0.910312
4578.000000	0.910208
4576.000000	0.910208
4574.000000	0.910241
4572.000000	0.910187
4570.000000	0.910088
4568.000000	0.910055
4566.000000	0.910140
4564.000000	0.910191
4562.000000	0.910138
4560.000000	0.910069
4558.000000	0.910072
4556.000000	0.910063
4554.000000	0.910052
4552.000000	0.910060
4550.000000	0.910090
4548.000000	0.910001
4546.000000	0.909858
4544.000000	0.909759
4542.000000	0.909704
4540.000000	0.909682
4538.000000	0.909780
4536.000000	0.909848
4534.000000	0.909786
4532.000000	0.909697
4530.000000	0.909694
4528.000000	0.909673
4526.000000	0.909589
4524.000000	0.909526
4522.000000	0.909529
4520.000000	0.909480
4518.000000	0.909452
4516.000000	0.909500
4514.000000	0.909494
4512.000000	0.909425
4510.000000	0.909398
4508.000000	0.909419
4506.000000	0.909491
4504.000000	0.909536
4502.000000	0.909468
4500.000000	0.909379
4498.000000	0.909337
4496.000000	0.909366
4494.000000	0.909493
4492.000000	0.909552
4490.000000	0.909387
4488.000000	0.909214
4486.000000	0.909245
4484.000000	0.909292
4482.000000	0.909201
4480.000000	0.909096
4478.000000	0.909050
4476.000000	0.909009
4474.000000	0.909006
4472.000000	0.909036
4470.000000	0.909074
4468.000000	0.909115
4466.000000	0.909132
4464.000000	0.909133
4462.000000	0.909113
4460.000000	0.909049
4458.000000	0.909045
4456.000000	0.909130
4454.000000	0.909184
4452.000000	0.909206
4450.000000	0.909219
4448.000000	0.909220
4446.000000	0.909200
4444.000000	0.909118
4442.000000	0.909004
4440.000000	0.909002
4438.000000	0.909066
4436.000000	0.909085
4434.000000	0.909068
4432.000000	0.909068
4430.000000	0.909066
4428.000000	0.909109
4426.000000	0.909170
4424.000000	0.909118
4422.000000	0.909044
4420.000000	0.909065
4418.000000	0.909058
4416.000000	0.909027
4414.000000	0.909059
4412.000000	0.909041
4410.000000	0.908952
4408.000000	0.908922
4406.000000	0.909008
4404.000000	0.909107
4402.000000	0.909113
4400.000000	0.909103
4398.000000	0.909097
4396.000000	0.909023
4394.000000	0.908995
4392.000000	0.909051
4390.000000	0.909033
4388.000000	0.909023
4386.000000	0.909039
4384.000000	0.908986
4382.000000	0.908915
4380.000000	0.908957
4378.000000	0.909016
4376.000000	0.909000
4374.000000	0.909067
4372.000000	0.909283
4370.000000	0.909347
4368.000000	0.909229
4366.000000	0.909261
4364.000000	0.909388
4362.000000	0.909419
4360.000000	0.909425
4358.000000	0.909427
4356.000000	0.909370
4354.000000	0.909360
4352.000000	0.909384
4350.000000	0.909382
4348.000000	0.909415
4346.000000	0.909522
4344.000000	0.909556
4342.000000	0.909431
4340.000000	0.909342
4338.000000	0.909490
4336.000000	0.909677
4334.000000	0.909745
4332.000000	0.909745
4330.000000	0.909719
4328.000000	0.909665
4326.000000	0.909698
4324.000000	0.909809
4322.000000	0.909837
4320.000000	0.909769
4318.000000	0.909762
4316.000000	0.909829
4314.000000	0.909896
4312.000000	0.909892
4310.000000	0.909932
4308.000000	0.910078
4306.000000	0.910142
4304.000000	0.910044
4302.000000	0.909944
4300.000000	0.909939
4298.000000	0.910070
4296.000000	0.910214
4294.000000	0.910213
4292.000000	0.910084
4290.000000	0.910044
4288.000000	0.910166
4286.000000	0.910264
4284.000000	0.910250
4282.000000	0.910254
4280.000000	0.910312
4278.000000	0.910341
4276.000000	0.910335
4274.000000	0.910336
4272.000000	0.910371
4270.000000	0.910464
4268.000000	0.910506
4266.000000	0.910470
4264.000000	0.910465
4262.000000	0.910438
4260.000000	0.910426
4258.000000	0.910587
4256.000000	0.910699
4254.000000	0.910672
4252.000000	0.910690
4250.000000	0.910670
4248.000000	0.910535
4246.000000	0.910466
4244.000000	0.910534
4242.000000	0.910674
4240.000000	0.910785
4238.000000	0.910814
4236.000000	0.910821
4234.000000	0.910859
4232.000000	0.910917
4230.000000	0.910935
4228.000000	0.910916
4226.000000	0.910913
4224.000000	0.910943
4222.000000	0.910992
4220.000000	0.910996
4218.000000	0.910881
4216.000000	0.910773
4214.000000	0.910815
4212.000000	0.910919
4210.000000	0.910933
4208.000000	0.910891
4206.000000	0.910902
4204.000000	0.910935
4202.000000	0.910907
4200.000000	0.910878
4198.000000	0.910917
4196.000000	0.910965
4194.000000	0.910909
4192.000000	0.910785
4190.000000	0.910725
4188.000000	0.910704
4186.000000	0.910673
4184.000000	0.910753
4182.000000	0.910911
4180.000000	0.910934
4178.000000	0.910858
4176.000000	0.910817
4174.000000	0.910787
4172.000000	0.910775
4170.000000	0.910793
4168.000000	0.910815
4166.000000	0.910852
4164.000000	0.910875
4162.000000	0.910808
4160.000000	0.910748
4158.000000	0.910735
4156.000000	0.910745
4154.000000	0.910786
4152.000000	0.910807
4150.000000	0.910764
4148.000000	0.910734
4146.000000	0.910754
4144.000000	0.910789
4142.000000	0.910766
4140.000000	0.910675
4138.000000	0.910567
4136.000000	0.910535
4134.000000	0.910620
4132.000000	0.910704
4130.000000	0.910672
4128.000000	0.910617
4126.000000	0.910576
4124.000000	0.910466
4122.000000	0.910392
4120.000000	0.910505
4118.000000	0.910651
4116.000000	0.910629
4114.000000	0.910556
4112.000000	0.910549
4110.000000	0.910543
4108.000000	0.910505
4106.000000	0.910425
4104.000000	0.910361
4102.000000	0.910354
4100.000000	0.910355
4098.000000	0.910404
4096.000000	0.910513
4094.000000	0.910531
4092.000000	0.910437
4090.000000	0.910351
4088.000000	0.910290
4086.000000	0.910309
4084.000000	0.910368
4082.000000	0.910345
4080.000000	0.910352
4078.000000	0.910380
4076.000000	0.910275
4074.000000	0.910192
4072.000000	0.910242
4070.000000	0.910300
4068.000000	0.910329
4066.000000	0.910335
4064.000000	0.910235
4062.000000	0.910145
4060.000000	0.910174
4058.000000	0.910177
4056.000000	0.910169
4054.000000	0.910251
4052.000000	0.910293
4050.000000	0.910220
4048.000000	0.910146
4046.000000	0.910154
4044.000000	0.910149
4042.000000	0.910042
4040.000000	0.909970
4038.000000	0.910031
4036.000000	0.910068
4034.000000	0.910015
4032.000000	0.909961
4030.000000	0.909895
4028.000000	0.909838
4026.000000	0.909862
4024.000000	0.909943
4022.000000	0.910068
4020.000000	0.910138
4018.000000	0.910096
4016.000000	0.910006
4014.000000	0.909843
4012.000000	0.909709
4010.000000	0.909722
4008.000000	0.909748
4006.000000	0.909682
4004.000000	0.909620
4002.000000	0.909630
4000.000000	0.909659
3998.000000	0.909624
3996.000000	0.909506
3994.000000	0.909425
3992.000000	0.909473
3990.000000	0.909562
3988.000000	0.909567
3986.000000	0.909439
3984.000000	0.909323
3982.000000	0.909358
3980.000000	0.909414
3978.000000	0.909378
3976.000000	0.909325
3974.000000	0.909299
3972.000000	0.909298
3970.000000	0.909247
3968.000000	0.909126
3966.000000	0.909060
3964.000000	0.909050
3962.000000	0.908971
3960.000000	0.908883
3958.000000	0.908876
3956.000000	0.908909
3954.000000	0.908919
3952.000000	0.908820
3950.000000	0.908685
3948.000000	0.908591
3946.000000	0.908516
3944.000000	0.908516
3942.000000	0.908511
3940.000000	0.908440
3938.000000	0.908407
3936.000000	0.908426
3934.000000	0.908363
3932.000000	0.908223
3930.000000	0.908140
3928.000000	0.908128
3926.000000	0.908103
3924.000000	0.907967
3922.000000	0.907822
3920.000000	0.907813
3918.000000	0.907760
3916.000000	0.907622
3914.000000	0.907560
3912.000000	0.907531
3910.000000	0.907468
3908.000000	0.907359
3906.000000	0.907118
3904.000000	0.906829
3902.000000	0.906685
3900.000000	0.906638
3898.000000	0.906626
3896.000000	0.906672
3894.000000	0.906664
3892.000000	0.906520
3890.000000	0.906408
3888.000000	0.906365
3886.000000	0.906186
3884.000000	0.906024
3882.000000	0.905975
3880.000000	0.905933
3878.000000	0.906051
3876.000000	0.906127
3874.000000	0.905954
3872.000000	0.905694
3870.000000	0.905321
3868.000000	0.905082
3866.000000	0.905089
3864.000000	0.905086
3862.000000	0.905124
3860.000000	0.905223
3858.000000	0.905320
3856.000000	0.904993
3854.000000	0.904005
3852.000000	0.903462
3850.000000	0.903968
3848.000000	0.904576
3846.000000	0.904643
3844.000000	0.904449
3842.000000	0.904327
3840.000000	0.904128
3838.000000	0.903710
3836.000000	0.903535
3834.000000	0.903726
3832.000000	0.903854
3830.000000	0.903860
3828.000000	0.903860
3826.000000	0.903820
3824.000000	0.903687
3822.000000	0.903397
3820.000000	0.903148
3818.000000	0.903000
3816.000000	0.902752
3814.000000	0.902763
3812.000000	0.903051
3810.000000	0.903107
3808.000000	0.902824
3806.000000	0.902526
3804.000000	0.902448
3802.000000	0.902195
3800.000000	0.901937
3798.000000	0.902076
3796.000000	0.902209
3794.000000	0.902210
3792.000000	0.902237
3790.000000	0.902237
3788.000000	0.902170
3786.000000	0.902104
3784.000000	0.902115
3782.000000	0.902094
3780.000000	0.901905
3778.000000	0.901680
3776.000000	0.901635
3774.000000	0.901715
3772.000000	0.901643
3770.000000	0.901406
3768.000000	0.901300
3766.000000	0.901325
3764.000000	0.901317
3762.000000	0.901231
3760.000000	0.901052
3758.000000	0.900943
3756.000000	0.901043
3754.000000	0.900987
3752.000000	0.900452
3750.000000	0.899968
3748.000000	0.900040
3746.000000	0.900097
3744.000000	0.899852
3742.000000	0.900101
3740.000000	0.900713
3738.000000	0.900884
3736.000000	0.900687
3734.000000	0.900573
3732.000000	0.900661
3730.000000	0.900909
3728.000000	0.901180
3726.000000	0.901319
3724.000000	0.901452
3722.000000	0.901535
3720.000000	0.901592
3718.000000	0.901839
3716.000000	0.902116
3714.000000	0.902124
3712.000000	0.901942
3710.000000	0.902018
3708.000000	0.902420
3706.000000	0.902768
3704.000000	0.902968
3702.000000	0.903135
3700.000000	0.903404
3698.000000	0.903771
3696.000000	0.904122
3694.000000	0.904353
3692.000000	0.904387
3690.000000	0.904337
3688.000000	0.904477
3686.000000	0.905033
3684.000000	0.905755
3682.000000	0.906358
3680.000000	0.906827
3678.000000	0.906988
3676.000000	0.906913
3674.000000	0.907219
3672.000000	0.907818
3670.000000	0.908179
3668.000000	0.908798
3666.000000	0.909794
3664.000000	0.910573
3662.000000	0.911103
3660.000000	0.911593
3658.000000	0.912009
3656.000000	0.912381
3654.000000	0.912987
3652.000000	0.913631
3650.000000	0.913920
3648.000000	0.914341
3646.000000	0.915239
3644.000000	0.916163
3642.000000	0.916897
3640.000000	0.917593
3638.000000	0.918293
3636.000000	0.919008
3634.000000	0.919674
3632.000000	0.920285
3630.000000	0.920738
3628.000000	0.921175
3626.000000	0.922039
3624.000000	0.923072
3622.000000	0.923890
3620.000000	0.924514
3618.000000	0.925176
3616.000000	0.926016
3614.000000	0.926776
3612.000000	0.927452
3610.000000	0.928167
3608.000000	0.928950
3606.000000	0.929838
3604.000000	0.930678
3602.000000	0.931389
3600.000000	0.932044
3598.000000	0.932777
3596.000000	0.933514
3594.000000	0.934096
3592.000000	0.934722
3590.000000	0.935351
3588.000000	0.935822
3586.000000	0.936355
3584.000000	0.937082
3582.000000	0.937770
3580.000000	0.938237
3578.000000	0.938730
3576.000000	0.939283
3574.000000	0.939738
3572.000000	0.940143
3570.000000	0.940469
3568.000000	0.940662
3566.000000	0.940925
3564.000000	0.941397
3562.000000	0.941915
3560.000000	0.942311
3558.000000	0.942676
3556.000000	0.943062
3554.000000	0.943242
3552.000000	0.943336
3550.000000	0.943589
3548.000000	0.943868
3546.000000	0.944107
3544.000000	0.944304
3542.000000	0.944511
3540.000000	0.944780
3538.000000	0.944912
3536.000000	0.944995
3534.000000	0.945220
3532.000000	0.945468
3530.000000	0.945623
3528.000000	0.945692
3526.000000	0.945830
3524.000000	0.946038
3522.000000	0.946179
3520.000000	0.946267
3518.000000	0.946402
3516.000000	0.946567
3514.000000	0.946688
3512.000000	0.946894
3510.000000	0.947168
3508.000000	0.947331
3506.000000	0.947419
3504.000000	0.947595
3502.000000	0.947884
3500.000000	0.948175
3498.000000	0.948384
3496.000000	0.948608
3494.000000	0.948879
3492.000000	0.949153
3490.000000	0.949426
3488.000000	0.949637
3486.000000	0.949818
3484.000000	0.950038
3482.000000	0.950221
3480.000000	0.950432
3478.000000	0.950743
3476.000000	0.951080
3474.000000	0.951314
3472.000000	0.951458
3470.000000	0.951650
3468.000000	0.951933
3466.000000	0.952308
3464.000000	0.952643
3462.000000	0.952875
3460.000000	0.953119
3458.000000	0.953427
3456.000000	0.953658
3454.000000	0.953809
3452.000000	0.954075
3450.000000	0.954333
3448.000000	0.954471
3446.000000	0.954632
3444.000000	0.954805
3442.000000	0.954994
3440.000000	0.955178
3438.000000	0.955328
3436.000000	0.955532
3434.000000	0.955826
3432.000000	0.956019
3430.000000	0.955993
3428.000000	0.956034
3426.000000	0.956271
3424.000000	0.956530
3422.000000	0.956684
3420.000000	0.956746
3418.000000	0.956881
3416.000000	0.957045
3414.000000	0.957102
3412.000000	0.957110
3410.000000	0.957249
3408.000000	0.957442
3406.000000	0.957503
3404.000000	0.957591
3402.000000	0.957659
3400.000000	0.957741
3398.000000	0.957884
3396.000000	0.957977
3394.000000	0.957979
3392.000000	0.958001
3390.000000	0.958145
3388.000000	0.958245
3386.000000	0.958271
3384.000000	0.958367
3382.000000	0.958465
3380.000000	0.958461
3378.000000	0.958464
3376.000000	0.958528
3374.000000	0.958600
3372.000000	0.958651
3370.000000	0.958675
3368.000000	0.958739
3366.000000	0.958831
3364.000000	0.958895
3362.000000	0.958959
3360.000000	0.959012
3358.000000	0.959058
3356.000000	0.959079
3354.000000	0.959070
3352.000000	0.959068
3350.000000	0.959070
3348.000000	0.959043
3346.000000	0.959054
3344.000000	0.959152
3342.000000	0.959269
3340.000000	0.959326
3338.000000	0.959342
3336.000000	0.959391
3334.000000	0.959420
3332.000000	0.959387
3330.000000	0.959393
3328.000000	0.959428
3326.000000	0.959437
3324.000000	0.959455
3322.000000	0.959451
3320.000000	0.959472
3318.000000	0.959484
3316.000000	0.959527
3314.000000	0.959630
3312.000000	0.959657
3310.000000	0.959645
3308.000000	0.959653
3306.000000	0.959784
3304.000000	0.959931
3302.000000	0.959939
3300.000000	0.959874
3298.000000	0.959852
3296.000000	0.959920
3294.000000	0.959962
3292.000000	0.959981
3290.000000	0.960143
3288.000000	0.960304
3286.000000	0.960312
3284.000000	0.960375
3282.000000	0.960448
3280.000000	0.960493
3278.000000	0.960588
3276.000000	0.960582
3274.000000	0.960486
3272.000000	0.960502
3270.000000	0.960609
3268.000000	0.960649
3266.000000	0.960680
3264.000000	0.960840
3262.000000	0.960985
3260.000000	0.961004
3258.000000	0.961027
3256.000000	0.961143
3254.000000	0.961147
3252.000000	0.961054
3250.000000	0.961099
3248.000000	0.961214
3246.000000	0.961294
3244.000000	0.961314
3242.000000	0.961343
3240.000000	0.961430
3238.000000	0.961465
3236.000000	0.961492
3234.000000	0.961573
3232.000000	0.961600
3230.000000	0.961572
3228.000000	0.961539
3226.000000	0.961595
3224.000000	0.961691
3222.000000	0.961717
3220.000000	0.961662
3218.000000	0.961620
3216.000000	0.961703
3214.000000	0.961785
3212.000000	0.961829
3210.000000	0.961919
3208.000000	0.961918
3206.000000	0.961867
3204.000000	0.961889
3202.000000	0.961941
3200.000000	0.961988
3198.000000	0.961999
3196.000000	0.962013
3194.000000	0.962008
3192.000000	0.962030
3190.000000	0.962062
3188.000000	0.962090
3186.000000	0.962092
3184.000000	0.962084
3182.000000	0.962111
3180.000000	0.962177
3178.000000	0.962250
3176.000000	0.962298
3174.000000	0.962321
3172.000000	0.962328
3170.000000	0.962282
3168.000000	0.962279
3166.000000	0.962281
3164.000000	0.962296
3162.000000	0.962373
3160.000000	0.962450
3158.000000	0.962498
3156.000000	0.962490
3154.000000	0.962456
3152.000000	0.962488
3150.000000	0.962569
3148.000000	0.962627
3146.000000	0.962709
3144.000000	0.962779
3142.000000	0.962729
3140.000000	0.962645
3138.000000	0.962667
3136.000000	0.962713
3134.000000	0.962748
3132.000000	0.962820
3130.000000	0.962836
3128.000000	0.962798
3126.000000	0.962838
3124.000000	0.962945
3122.000000	0.962971
3120.000000	0.962958
3118.000000	0.962982
3116.000000	0.963008
3114.000000	0.963077
3112.000000	0.963175
3110.000000	0.963198
3108.000000	0.963192
3106.000000	0.963232
3104.000000	0.963224
3102.000000	0.963206
3100.000000	0.963263
3098.000000	0.963284
3096.000000	0.963269
3094.000000	0.963280
3092.000000	0.963280
3090.000000	0.963298
3088.000000	0.963354
3086.000000	0.963413
3084.000000	0.963422
3082.000000	0.963414
3080.000000	0.963433
3078.000000	0.963474
3076.000000	0.963522
3074.000000	0.963550
3072.000000	0.963607
3070.000000	0.963647
3068.000000	0.963634
3066.000000	0.963638
3064.000000	0.963652
3062.000000	0.963642
3060.000000	0.963583
3058.000000	0.963588
3056.000000	0.963729
3054.000000	0.963811
3052.000000	0.963791
3050.000000	0.963769
3048.000000	0.963776
3046.000000	0.963767
3044.000000	0.963690
3042.000000	0.963650
3040.000000	0.963662
3038.000000	0.963670
3036.000000	0.963746
3034.000000	0.963807
3032.000000	0.963809
3030.000000	0.963922
3028.000000	0.964042
3026.000000	0.964042
3024.000000	0.964053
3022.000000	0.964049
3020.000000	0.963984
3018.000000	0.963854
3016.000000	0.963750
3014.000000	0.963751
3012.000000	0.963772
3010.000000	0.963809
3008.000000	0.963886
3006.000000	0.963966
3004.000000	0.964016
3002.000000	0.964007
3000.000000	0.964003
2998.000000	0.964073
2996.000000	0.964097
2994.000000	0.964102
2992.000000	0.964188
2990.000000	0.964254
2988.000000	0.964288
2986.000000	0.964272
2984.000000	0.964246
2982.000000	0.964321
2980.000000	0.964390
2978.000000	0.964427
2976.000000	0.964519
2974.000000	0.964657
2972.000000	0.964905
2970.000000	0.965249
2968.000000	0.965549
2966.000000	0.965720
2964.000000	0.965702
2962.000000	0.965448
2960.000000	0.965107
2958.000000	0.964933
2956.000000	0.964800
2954.000000	0.964518
2952.000000	0.964283
2950.000000	0.964204
2948.000000	0.964191
2946.000000	0.964195
2944.000000	0.964306
2942.000000	0.964390
2940.000000	0.964333
2938.000000	0.964265
2936.000000	0.964182
2934.000000	0.964136
2932.000000	0.964131
2930.000000	0.964028
2928.000000	0.963879
2926.000000	0.963714
2924.000000	0.963466
2922.000000	0.963252
2920.000000	0.963123
2918.000000	0.963076
2916.000000	0.963075
2914.000000	0.963049
2912.000000	0.963057
2910.000000	0.963097
2908.000000	0.963149
2906.000000	0.963222
2904.000000	0.963244
2902.000000	0.963163
2900.000000	0.963041
2898.000000	0.962869
2896.000000	0.962711
2894.000000	0.962683
2892.000000	0.962758
2890.000000	0.962708
2888.000000	0.962496
2886.000000	0.962308
2884.000000	0.962267
2882.000000	0.962233
2880.000000	0.962176
2878.000000	0.962110
2876.000000	0.962058
2874.000000	0.961984
2872.000000	0.961866
2870.000000	0.961828
2868.000000	0.961895
2866.000000	0.961834
2864.000000	0.961578
2862.000000	0.961282
2860.000000	0.961027
2858.000000	0.960789
2856.000000	0.960567
2854.000000	0.960347
2852.000000	0.960155
2850.000000	0.960020
2848.000000	0.959920
2846.000000	0.959819
2844.000000	0.959697
2842.000000	0.959643
2840.000000	0.959666
2838.000000	0.959599
2836.000000	0.959433
2834.000000	0.959305
2832.000000	0.959202
2830.000000	0.959062
2828.000000	0.959021
2826.000000	0.958960
2824.000000	0.958792
2822.000000	0.958611
2820.000000	0.958514
2818.000000	0.958478
2816.000000	0.958407
2814.000000	0.958297
2812.000000	0.958198
2810.000000	0.958113
2808.000000	0.957930
2806.000000	0.957723
2804.000000	0.957628
2802.000000	0.957574
2800.000000	0.957523
2798.000000	0.957423
2796.000000	0.957238
2794.000000	0.957068
2792.000000	0.956981
2790.000000	0.956903
2788.000000	0.956770
2786.000000	0.956701
2784.000000	0.956613
2782.000000	0.956543
2780.000000	0.956506
2778.000000	0.956379
2776.000000	0.956271
2774.000000	0.956177
2772.000000	0.956132
2770.000000	0.956142
2768.000000	0.956079
2766.000000	0.956004
2764.000000	0.955962
2762.000000	0.955922
2760.000000	0.955821
2758.000000	0.955660
2756.000000	0.955542
2754.000000	0.955494
2752.000000	0.955495
2750.000000	0.955478
2748.000000	0.955416
2746.000000	0.955429
2744.000000	0.955451
2742.000000	0.955366
2740.000000	0.955301
2738.000000	0.955335
2736.000000	0.955374
2734.000000	0.955341
2732.000000	0.955289
2730.000000	0.955239
2728.000000	0.955162
2726.000000	0.955140
2724.000000	0.955209
2722.000000	0.955273
2720.000000	0.955273
2718.000000	0.955239
2716.000000	0.955206
2714.000000	0.955220
2712.000000	0.955234
2710.000000	0.955181
2708.000000	0.955167
2706.000000	0.955191
2704.000000	0.955222
2702.000000	0.955270
2700.000000	0.955266
2698.000000	0.955252
2696.000000	0.955274
2694.000000	0.955300
2692.000000	0.955352
2690.000000	0.955433
2688.000000	0.955458
2686.000000	0.955457
2684.000000	0.955530
2682.000000	0.955600
2680.000000	0.955641
2678.000000	0.955695
2676.000000	0.955770
2674.000000	0.955865
2672.000000	0.955972
2670.000000	0.956096
2668.000000	0.956163
2666.000000	0.956168
2664.000000	0.956184
2662.000000	0.956189
2660.000000	0.956256
2658.000000	0.956399
2656.000000	0.956517
2654.000000	0.956614
2652.000000	0.956698
2650.000000	0.956779
2648.000000	0.956893
2646.000000	0.957028
2644.000000	0.957142
2642.000000	0.957154
2640.000000	0.957196
2638.000000	0.957279
2636.000000	0.957343
2634.000000	0.957448
2632.000000	0.957538
2630.000000	0.957588
2628.000000	0.957722
2626.000000	0.957854
2624.000000	0.957874
2622.000000	0.957965
2620.000000	0.958114
2618.000000	0.958238
2616.000000	0.958312
2614.000000	0.958381
2612.000000	0.958415
2610.000000	0.958430
2608.000000	0.958532
2606.000000	0.958656
2604.000000	0.958710
2602.000000	0.958729
2600.000000	0.958794
2598.000000	0.958918
2596.000000	0.959082
2594.000000	0.959235
2592.000000	0.959282
2590.000000	0.959313
2588.000000	0.959430
2586.000000	0.959569
2584.000000	0.959625
2582.000000	0.959658
2580.000000	0.959788
2578.000000	0.959937
2576.000000	0.960013
2574.000000	0.960035
2572.000000	0.960074
2570.000000	0.960172
2568.000000	0.960302
2566.000000	0.960373
2564.000000	0.960386
2562.000000	0.960471
2560.000000	0.960598
2558.000000	0.960704
2556.000000	0.960757
2554.000000	0.960748
2552.000000	0.960809
2550.000000	0.960939
2548.000000	0.961051
2546.000000	0.961160
2544.000000	0.961270
2542.000000	0.961318
2540.000000	0.961379
2538.000000	0.961458
2536.000000	0.961533
2534.000000	0.961619
2532.000000	0.961711
2530.000000	0.961865
2528.000000	0.961961
2526.000000	0.961966
2524.000000	0.961998
2522.000000	0.962139
2520.000000	0.962258
2518.000000	0.962301
2516.000000	0.962407
2514.000000	0.962524
2512.000000	0.962609
2510.000000	0.962689
2508.000000	0.962744
2506.000000	0.962828
2504.000000	0.962931
2502.000000	0.962947
2500.000000	0.962940
2498.000000	0.963032
2496.000000	0.963175
2494.000000	0.963303
2492.000000	0.963423
2490.000000	0.963478
2488.000000	0.963596
2486.000000	0.963700
2484.000000	0.963768
2482.000000	0.963835
2480.000000	0.963869
2478.000000	0.963971
2476.000000	0.964129
2474.000000	0.964232
2472.000000	0.964265
2470.000000	0.964290
2468.000000	0.964366
2466.000000	0.964477
2464.000000	0.964625
2462.000000	0.964701
2460.000000	0.964743
2458.000000	0.964940
2456.000000	0.965173
2454.000000	0.965352
2452.000000	0.965484
2450.000000	0.965621
2448.000000	0.965869
2446.000000	0.966168
2444.000000	0.966360
2442.000000	0.966599
2440.000000	0.967007
2438.000000	0.967278
2436.000000	0.967483
2434.000000	0.967850
2432.000000	0.968227
2430.000000	0.968491
2428.000000	0.968641
2426.000000	0.968665
2424.000000	0.968646
2422.000000	0.968644
2420.000000	0.968537
2418.000000	0.968339
2416.000000	0.968119
2414.000000	0.967879
2412.000000	0.967580
2410.000000	0.967290
2408.000000	0.967184
2406.000000	0.967139
2404.000000	0.967006
2402.000000	0.966874
2400.000000	0.966773
2398.000000	0.966738
2396.000000	0.966827
2394.000000	0.966870
2392.000000	0.966823
2390.000000	0.966802
2388.000000	0.966851
2386.000000	0.966930
2384.000000	0.966948
2382.000000	0.966922
2380.000000	0.966936
2378.000000	0.966964
2376.000000	0.966973
2374.000000	0.966988
2372.000000	0.966966
2370.000000	0.966902
2368.000000	0.966881
2366.000000	0.966947
2364.000000	0.967030
2362.000000	0.967016
2360.000000	0.966938
2358.000000	0.966933
2356.000000	0.967006
2354.000000	0.967124
2352.000000	0.967302
2350.000000	0.967503
2348.000000	0.967661
2346.000000	0.967744
2344.000000	0.967830
2342.000000	0.968024
2340.000000	0.968120
2338.000000	0.968022
2336.000000	0.967985
2334.000000	0.968017
2332.000000	0.968079
2330.000000	0.968124
2328.000000	0.968130
2326.000000	0.968170
2324.000000	0.968275
2322.000000	0.968413
2320.000000	0.968499
2318.000000	0.968556
2316.000000	0.968652
2314.000000	0.968770
2312.000000	0.968869
2310.000000	0.968981
2308.000000	0.969126
2306.000000	0.969237
2304.000000	0.969339
2302.000000	0.969413
2300.000000	0.969436
2298.000000	0.969484
2296.000000	0.969580
2294.000000	0.969681
2292.000000	0.969715
2290.000000	0.969771
2288.000000	0.969845
2286.000000	0.969871
2284.000000	0.969913
2282.000000	0.969962
2280.000000	0.969969
2278.000000	0.969990
2276.000000	0.970103
2274.000000	0.970236
2272.000000	0.970209
2270.000000	0.970182
2268.000000	0.970280
2266.000000	0.970359
2264.000000	0.970458
2262.000000	0.970570
2260.000000	0.970637
2258.000000	0.970611
2256.000000	0.970590
2254.000000	0.970654
2252.000000	0.970724
2250.000000	0.970742
2248.000000	0.970771
2246.000000	0.970815
2244.000000	0.970821
2242.000000	0.970824
2240.000000	0.970880
2238.000000	0.970970
2236.000000	0.971014
2234.000000	0.971013
2232.000000	0.971007
2230.000000	0.970965
2228.000000	0.970988
2226.000000	0.971034
2224.000000	0.971071
2222.000000	0.971101
2220.000000	0.971145
2218.000000	0.971201
2216.000000	0.971176
2214.000000	0.971113
2212.000000	0.971114
2210.000000	0.971176
2208.000000	0.971212
2206.000000	0.971226
2204.000000	0.971213
2202.000000	0.971219
2200.000000	0.971193
2198.000000	0.971156
2196.000000	0.971140
2194.000000	0.971080
2192.000000	0.971021
2190.000000	0.971040
2188.000000	0.971075
2186.000000	0.971021
2184.000000	0.970964
2182.000000	0.970898
2180.000000	0.970885
2178.000000	0.970904
2176.000000	0.970862
2174.000000	0.970856
2172.000000	0.970797
2170.000000	0.970675
2168.000000	0.970647
2166.000000	0.970636
2164.000000	0.970545
2162.000000	0.970446
2160.000000	0.970410
2158.000000	0.970370
2156.000000	0.970300
2154.000000	0.970255
2152.000000	0.970182
2150.000000	0.970118
2148.000000	0.970083
2146.000000	0.970017
2144.000000	0.969940
2142.000000	0.969890
2140.000000	0.969839
2138.000000	0.969764
2136.000000	0.969704
2134.000000	0.969594
2132.000000	0.969372
2130.000000	0.969149
2128.000000	0.969036
2126.000000	0.969007
2124.000000	0.968998
2122.000000	0.968959
2120.000000	0.968812
2118.000000	0.968641
2116.000000	0.968571
2114.000000	0.968496
2112.000000	0.968435
2110.000000	0.968361
2108.000000	0.968295
2106.000000	0.968160
2104.000000	0.967962
2102.000000	0.967868
2100.000000	0.967883
2098.000000	0.967778
2096.000000	0.967583
2094.000000	0.967515
2092.000000	0.967475
2090.000000	0.967351
2088.000000	0.967267
2086.000000	0.967167
2084.000000	0.967014
2082.000000	0.966876
2080.000000	0.966674
2078.000000	0.966556
2076.000000	0.966508
2074.000000	0.966425
2072.000000	0.966294
2070.000000	0.966114
2068.000000	0.965968
2066.000000	0.965886
2064.000000	0.965822
2062.000000	0.965733
2060.000000	0.965610
2058.000000	0.965515
2056.000000	0.965438
2054.000000	0.965325
2052.000000	0.965200
2050.000000	0.965048
2048.000000	0.964938
2046.000000	0.964883
2044.000000	0.964803
2042.000000	0.964685
2040.000000	0.964606
2038.000000	0.964503
2036.000000	0.964398
2034.000000	0.964342
2032.000000	0.964246
2030.000000	0.964092
2028.000000	0.963967
2026.000000	0.963883
2024.000000	0.963801
2022.000000	0.963701
2020.000000	0.963648
2018.000000	0.963586
2016.000000	0.963464
2014.000000	0.963360
2012.000000	0.963288
2010.000000	0.963237
2008.000000	0.963110
2006.000000	0.963044
2004.000000	0.963017
2002.000000	0.962922
2000.000000	0.962838
1998.000000	0.962839
1996.000000	0.962843
1994.000000	0.962759
1992.000000	0.962593
1990.000000	0.962469
1988.000000	0.962526
1986.000000	0.962562
1984.000000	0.962498
1982.000000	0.962444
1980.000000	0.962421
1978.000000	0.962376
1976.000000	0.962345
1974.000000	0.962352
1972.000000	0.962327
1970.000000	0.962285
1968.000000	0.962288
1966.000000	0.962288
1964.000000	0.962262
1962.000000	0.962288
1960.000000	0.962327
1958.000000	0.962285
1956.000000	0.962297
1954.000000	0.962384
1952.000000	0.962405
1950.000000	0.962392
1948.000000	0.962438
1946.000000	0.962483
1944.000000	0.962461
1942.000000	0.962421
1940.000000	0.962495
1938.000000	0.962562
1936.000000	0.962568
1934.000000	0.962643
1932.000000	0.962781
1930.000000	0.962892
1928.000000	0.962956
1926.000000	0.963042
1924.000000	0.963101
1922.000000	0.963111
1920.000000	0.963102
1918.000000	0.963043
1916.000000	0.963099
1914.000000	0.963265
1912.000000	0.963402
1910.000000	0.963498
1908.000000	0.963592
1906.000000	0.963724
1904.000000	0.963870
1902.000000	0.963929
1900.000000	0.963975
1898.000000	0.964032
1896.000000	0.964108
1894.000000	0.964201
1892.000000	0.964236
1890.000000	0.964193
1888.000000	0.964232
1886.000000	0.964367
1884.000000	0.964516
1882.000000	0.964621
1880.000000	0.964657
1878.000000	0.964700
1876.000000	0.964793
1874.000000	0.964893
1872.000000	0.964873
1870.000000	0.964760
1868.000000	0.964742
1866.000000	0.964942
1864.000000	0.965120
1862.000000	0.965211
1860.000000	0.965262
1858.000000	0.965277
1856.000000	0.965324
1854.000000	0.965436
1852.000000	0.965530
1850.000000	0.965538
1848.000000	0.965558
1846.000000	0.965562
1844.000000	0.965423
1842.000000	0.965539
1840.000000	0.965799
1838.000000	0.965916
1836.000000	0.966044
1834.000000	0.966146
1832.000000	0.966103
1830.000000	0.966001
1828.000000	0.966112
1826.000000	0.966282
1824.000000	0.966439
1822.000000	0.966642
1820.000000	0.966704
1818.000000	0.966694
1816.000000	0.966824
1814.000000	0.966950
1812.000000	0.966989
1810.000000	0.967086
1808.000000	0.967202
1806.000000	0.967285
1804.000000	0.967315
1802.000000	0.967319
1800.000000	0.967370
1798.000000	0.967536
1796.000000	0.967690
1794.000000	0.967634
1792.000000	0.967515
1790.000000	0.967693
1788.000000	0.967910
1786.000000	0.968028
1784.000000	0.968145
1782.000000	0.968301
1780.000000	0.968409
1778.000000	0.968553
1776.000000	0.968703
1774.000000	0.968592
1772.000000	0.968302
1770.000000	0.968450
1768.000000	0.968786
1766.000000	0.969131
1764.000000	0.969352
1762.000000	0.969258
1760.000000	0.969309
1758.000000	0.969473
1756.000000	0.969576
1754.000000	0.969773
1752.000000	0.969759
1750.000000	0.969730
1748.000000	0.970003
1746.000000	0.970288
1744.000000	0.970426
1742.000000	0.970436
1740.000000	0.970383
1738.000000	0.970574
1736.000000	0.970576
1734.000000	0.970050
1732.000000	0.970338
1730.000000	0.970995
1728.000000	0.971270
1726.000000	0.971473
1724.000000	0.971639
1722.000000	0.971737
1720.000000	0.971575
1718.000000	0.970958
1716.000000	0.970849
1714.000000	0.971435
1712.000000	0.971912
1710.000000	0.972107
1708.000000	0.972079
1706.000000	0.972010
1704.000000	0.972114
1702.000000	0.971944
1700.000000	0.971428
1698.000000	0.971644
1696.000000	0.971554
1694.000000	0.971847
1692.000000	0.972631
1690.000000	0.972796
1688.000000	0.972767
1686.000000	0.972363
1684.000000	0.971774
1682.000000	0.972233
1680.000000	0.972912
1678.000000	0.973168
1676.000000	0.973011
1674.000000	0.972900
1672.000000	0.973092
1670.000000	0.972973
1668.000000	0.973017
1666.000000	0.973454
1664.000000	0.973584
1662.000000	0.973498
1660.000000	0.973625
1658.000000	0.973816
1656.000000	0.973711
1654.000000	0.972564
1652.000000	0.972012
1650.000000	0.973033
1648.000000	0.973404
1646.000000	0.973225
1644.000000	0.973537
1642.000000	0.973981
1640.000000	0.974129
1638.000000	0.973879
1636.000000	0.973272
1634.000000	0.973349
1632.000000	0.973980
1630.000000	0.974113
1628.000000	0.973989
1626.000000	0.974041
1624.000000	0.973989
1622.000000	0.973889
1620.000000	0.974023
1618.000000	0.973774
1616.000000	0.973468
1614.000000	0.973932
1612.000000	0.974348
1610.000000	0.974361
1608.000000	0.974231
1606.000000	0.974191
1604.000000	0.974181
1602.000000	0.974110
1600.000000	0.974130
1598.000000	0.974188
1596.000000	0.974245
1594.000000	0.974268
1592.000000	0.974376
1590.000000	0.974472
1588.000000	0.974425
1586.000000	0.974428
1584.000000	0.974522
1582.000000	0.974588
1580.000000	0.974597
1578.000000	0.974287
1576.000000	0.973790
1574.000000	0.974125
1572.000000	0.974610
1570.000000	0.974472
1568.000000	0.974507
1566.000000	0.974776
1564.000000	0.974877
1562.000000	0.974643
1560.000000	0.973616
1558.000000	0.973134
1556.000000	0.973895
1554.000000	0.974482
1552.000000	0.974833
1550.000000	0.974963
1548.000000	0.975040
1546.000000	0.975001
1544.000000	0.974789
1542.000000	0.974471
1540.000000	0.973952
1538.000000	0.974186
1536.000000	0.974990
1534.000000	0.975135
1532.000000	0.975226
1530.000000	0.975478
1528.000000	0.975432
1526.000000	0.975280
1524.000000	0.975285
1522.000000	0.974960
1520.000000	0.974824
1518.000000	0.975204
1516.000000	0.975455
1514.000000	0.975570
1512.000000	0.975589
1510.000000	0.975580
1508.000000	0.975048
1506.000000	0.974523
1504.000000	0.975213
1502.000000	0.976264
1500.000000	0.976692
1498.000000	0.976614
1496.000000	0.976144
1494.000000	0.975668
1492.000000	0.975138
1490.000000	0.974750
1488.000000	0.974925
1486.000000	0.975252
1484.000000	0.975496
1482.000000	0.975600
1480.000000	0.975713
1478.000000	0.975793
1476.000000	0.975631
1474.000000	0.975320
1472.000000	0.975137
1470.000000	0.975484
1468.000000	0.975788
1466.000000	0.975675
1464.000000	0.975594
1462.000000	0.975837
1460.000000	0.975863
1458.000000	0.975337
1456.000000	0.975092
1454.000000	0.975589
1452.000000	0.975691
1450.000000	0.975302
1448.000000	0.975011
1446.000000	0.975154
1444.000000	0.975367
1442.000000	0.975395
1440.000000	0.975282
1438.000000	0.975011
1436.000000	0.974806
1434.000000	0.975062
1432.000000	0.975141
1430.000000	0.975031
1428.000000	0.975042
1426.000000	0.975002
1424.000000	0.974850
1422.000000	0.974731
1420.000000	0.974454
1418.000000	0.974464
1416.000000	0.974778
1414.000000	0.974935
1412.000000	0.975046
1410.000000	0.975057
1408.000000	0.974984
1406.000000	0.974804
1404.000000	0.974538
1402.000000	0.974327
1400.000000	0.974083
1398.000000	0.973914
1396.000000	0.973805
1394.000000	0.973625
1392.000000	0.973709
1390.000000	0.973922
1388.000000	0.973936
1386.000000	0.973856
1384.000000	0.973691
1382.000000	0.973559
1380.000000	0.973524
1378.000000	0.973373
1376.000000	0.973258
1374.000000	0.973133
1372.000000	0.973093
1370.000000	0.973074
1368.000000	0.972919
1366.000000	0.972745
1364.000000	0.972621
1362.000000	0.972478
1360.000000	0.972403
1358.000000	0.972394
1356.000000	0.972387
1354.000000	0.972317
1352.000000	0.972260
1350.000000	0.972197
1348.000000	0.972039
1346.000000	0.971935
1344.000000	0.971988
1342.000000	0.972014
1340.000000	0.971791
1338.000000	0.971574
1336.000000	0.971548
1334.000000	0.971466
1332.000000	0.971356
1330.000000	0.971399
1328.000000	0.971423
1326.000000	0.971213
1324.000000	0.971072
1322.000000	0.971104
1320.000000	0.970969
1318.000000	0.970783
1316.000000	0.970691
1314.000000	0.970650
1312.000000	0.970717
1310.000000	0.970716
1308.000000	0.970530
1306.000000	0.970401
1304.000000	0.970376
1302.000000	0.970313
1300.000000	0.970322
1298.000000	0.970371
1296.000000	0.970212
1294.000000	0.970054
1292.000000	0.970016
1290.000000	0.969995
1288.000000	0.969861
1286.000000	0.969781
1284.000000	0.969752
1282.000000	0.969705
1280.000000	0.969758
1278.000000	0.969902
1276.000000	0.969965
1274.000000	0.969994
1272.000000	0.970129
1270.000000	0.970532
1268.000000	0.971288
1266.000000	0.972349
1264.000000	0.973485
1262.000000	0.974219
1260.000000	0.974172
1258.000000	0.973400
1256.000000	0.972428
1254.000000	0.971759
1252.000000	0.971242
1250.000000	0.970748
1248.000000	0.970475
1246.000000	0.970417
1244.000000	0.970364
1242.000000	0.970360
1240.000000	0.970275
1238.000000	0.970186
1236.000000	0.970315
1234.000000	0.970341
1232.000000	0.970332
1230.000000	0.970381
1228.000000	0.970271
1226.000000	0.970156
1224.000000	0.970205
1222.000000	0.970261
1220.000000	0.970276
1218.000000	0.970321
1216.000000	0.970308
1214.000000	0.970247
1212.000000	0.970276
1210.000000	0.970349
1208.000000	0.970318
1206.000000	0.970320
1204.000000	0.970332
1202.000000	0.970355
1200.000000	0.970357
1198.000000	0.970441
1196.000000	0.970591
1194.000000	0.970702
1192.000000	0.970649
1190.000000	0.970747
1188.000000	0.971083
1186.000000	0.971317
1184.000000	0.971492
1182.000000	0.971621
1180.000000	0.971574
1178.000000	0.971565
1176.000000	0.971687
1174.000000	0.971867
1172.000000	0.971851
1170.000000	0.971961
1168.000000	0.972139
1166.000000	0.972289
1164.000000	0.972352
1162.000000	0.972491
1160.000000	0.972838
1158.000000	0.972982
1156.000000	0.972797
1154.000000	0.972752
1152.000000	0.973068
1150.000000	0.973430
1148.000000	0.973483
1146.000000	0.973389
1144.000000	0.973398
1142.000000	0.973340
1140.000000	0.973262
1138.000000	0.973502
1136.000000	0.973563
1134.000000	0.973445
1132.000000	0.973579
1130.000000	0.973526
1128.000000	0.973639
1126.000000	0.973696
1124.000000	0.973374
1122.000000	0.973292
1120.000000	0.973960
1118.000000	0.974636
1116.000000	0.974694
1114.000000	0.974808
1112.000000	0.975100
1110.000000	0.975347
1108.000000	0.975454
1106.000000	0.975550
1104.000000	0.975686
1102.000000	0.975720
1100.000000	0.976158
1098.000000	0.976698
1096.000000	0.976634
1094.000000	0.976242
1092.000000	0.975917
1090.000000	0.975769
1088.000000	0.975439
1086.000000	0.974953
1084.000000	0.974389
1082.000000	0.973902
1080.000000	0.973378
1078.000000	0.972863
1076.000000	0.972118
1074.000000	0.971603
1072.000000	0.971036
1070.000000	0.969811
1068.000000	0.968935
1066.000000	0.968208
1064.000000	0.967191
1062.000000	0.965939
1060.000000	0.964751
1058.000000	0.963827
1056.000000	0.963042
1054.000000	0.962439
1052.000000	0.961043
1050.000000	0.959971
1048.000000	0.959642
1046.000000	0.959831
1044.000000	0.959789
1042.000000	0.959174
1040.000000	0.958877
1038.000000	0.958943
1036.000000	0.958929
1034.000000	0.958693
1032.000000	0.958347
1030.000000	0.958751
1028.000000	0.959429
1026.000000	0.959057
1024.000000	0.958051
1022.000000	0.958199
1020.000000	0.959346
1018.000000	0.959596
1016.000000	0.959688
1014.000000	0.959065
1012.000000	0.958119
1010.000000	0.957624
1008.000000	0.957014
1006.000000	0.956788
1004.000000	0.956701
1002.000000	0.956928
1000.000000	0.957895
