PE IR       SUBTECH     SPECTRUM    ASCII       PEDS        4.00        
   -1
TE109A_069_140K.ASC
20/04/21
19:47:02.00
20/04/21
19:47:02.00
Administrator
TE109A, Tuesday, April 21 2020, 069.
1000.000000
#HDR
-1
-1
#GR
cm-1
A
1.0
0.0
6000.000000
-2.000000
2501
8
0.978203
0.902389
#DATA
6000.000000	0.906557
5998.000000	0.906292
5996.000000	0.906450
5994.000000	0.906694
5992.000000	0.906419
5990.000000	0.906241
5988.000000	0.906154
5986.000000	0.906341
5984.000000	0.906696
5982.000000	0.906700
5980.000000	0.906755
5978.000000	0.906522
5976.000000	0.906436
5974.000000	0.906578
5972.000000	0.906911
5970.000000	0.907342
5968.000000	0.907216
5966.000000	0.906888
5964.000000	0.906658
5962.000000	0.906803
5960.000000	0.907059
5958.000000	0.906925
5956.000000	0.906737
5954.000000	0.906842
5952.000000	0.906926
5950.000000	0.906788
5948.000000	0.906610
5946.000000	0.906660
5944.000000	0.906862
5942.000000	0.907010
5940.000000	0.907008
5938.000000	0.907087
5936.000000	0.907054
5934.000000	0.906772
5932.000000	0.906473
5930.000000	0.906444
5928.000000	0.906511
5926.000000	0.906400
5924.000000	0.906283
5922.000000	0.906424
5920.000000	0.906704
5918.000000	0.906897
5916.000000	0.906842
5914.000000	0.906710
5912.000000	0.906899
5910.000000	0.907045
5908.000000	0.907155
5906.000000	0.906938
5904.000000	0.906589
5902.000000	0.906665
5900.000000	0.907040
5898.000000	0.907381
5896.000000	0.907163
5894.000000	0.906699
5892.000000	0.906463
5890.000000	0.906555
5888.000000	0.906702
5886.000000	0.906789
5884.000000	0.906878
5882.000000	0.907030
5880.000000	0.907042
5878.000000	0.906854
5876.000000	0.906547
5874.000000	0.906577
5872.000000	0.906858
5870.000000	0.907113
5868.000000	0.907125
5866.000000	0.907126
5864.000000	0.907188
5862.000000	0.907338
5860.000000	0.907314
5858.000000	0.907182
5856.000000	0.906792
5854.000000	0.906659
5852.000000	0.906931
5850.000000	0.907320
5848.000000	0.907353
5846.000000	0.907029
5844.000000	0.906863
5842.000000	0.906767
5840.000000	0.906730
5838.000000	0.906750
5836.000000	0.906898
5834.000000	0.907066
5832.000000	0.907298
5830.000000	0.907527
5828.000000	0.907594
5826.000000	0.907552
5824.000000	0.907455
5822.000000	0.907443
5820.000000	0.907731
5818.000000	0.907942
5816.000000	0.907921
5814.000000	0.907789
5812.000000	0.907561
5810.000000	0.907494
5808.000000	0.907578
5806.000000	0.907685
5804.000000	0.907944
5802.000000	0.907987
5800.000000	0.907872
5798.000000	0.907834
5796.000000	0.907789
5794.000000	0.907811
5792.000000	0.907814
5790.000000	0.907729
5788.000000	0.907584
5786.000000	0.907588
5784.000000	0.907828
5782.000000	0.907942
5780.000000	0.907980
5778.000000	0.907813
5776.000000	0.907839
5774.000000	0.907981
5772.000000	0.908102
5770.000000	0.908179
5768.000000	0.908202
5766.000000	0.908219
5764.000000	0.908305
5762.000000	0.908189
5760.000000	0.907890
5758.000000	0.907676
5756.000000	0.907784
5754.000000	0.908046
5752.000000	0.907972
5750.000000	0.907750
5748.000000	0.907503
5746.000000	0.907520
5744.000000	0.907617
5742.000000	0.907960
5740.000000	0.908263
5738.000000	0.908293
5736.000000	0.908175
5734.000000	0.908160
5732.000000	0.908290
5730.000000	0.908291
5728.000000	0.908037
5726.000000	0.907733
5724.000000	0.907560
5722.000000	0.907641
5720.000000	0.907929
5718.000000	0.908239
5716.000000	0.908306
5714.000000	0.908297
5712.000000	0.908441
5710.000000	0.908739
5708.000000	0.908895
5706.000000	0.908675
5704.000000	0.908406
5702.000000	0.908265
5700.000000	0.908250
5698.000000	0.908301
5696.000000	0.908350
5694.000000	0.908587
5692.000000	0.908906
5690.000000	0.908980
5688.000000	0.908863
5686.000000	0.908625
5684.000000	0.908465
5682.000000	0.908569
5680.000000	0.908787
5678.000000	0.908910
5676.000000	0.908844
5674.000000	0.908624
5672.000000	0.908602
5670.000000	0.908695
5668.000000	0.908627
5666.000000	0.908583
5664.000000	0.908648
5662.000000	0.908986
5660.000000	0.909292
5658.000000	0.909275
5656.000000	0.909169
5654.000000	0.908991
5652.000000	0.908905
5650.000000	0.908785
5648.000000	0.908695
5646.000000	0.908764
5644.000000	0.908863
5642.000000	0.908958
5640.000000	0.908898
5638.000000	0.908763
5636.000000	0.908865
5634.000000	0.909064
5632.000000	0.909163
5630.000000	0.909164
5628.000000	0.909032
5626.000000	0.908890
5624.000000	0.908755
5622.000000	0.908887
5620.000000	0.909088
5618.000000	0.909178
5616.000000	0.909192
5614.000000	0.909030
5612.000000	0.908932
5610.000000	0.908949
5608.000000	0.909041
5606.000000	0.909214
5604.000000	0.909258
5602.000000	0.909399
5600.000000	0.909383
5598.000000	0.909203
5596.000000	0.909095
5594.000000	0.909002
5592.000000	0.909050
5590.000000	0.909094
5588.000000	0.909290
5586.000000	0.909444
5584.000000	0.909569
5582.000000	0.909801
5580.000000	0.909895
5578.000000	0.909844
5576.000000	0.909724
5574.000000	0.909722
5572.000000	0.909972
5570.000000	0.910055
5568.000000	0.910017
5566.000000	0.909881
5564.000000	0.909517
5562.000000	0.909192
5560.000000	0.908946
5558.000000	0.909038
5556.000000	0.909161
5554.000000	0.909196
5552.000000	0.909355
5550.000000	0.909707
5548.000000	0.909893
5546.000000	0.909700
5544.000000	0.909425
5542.000000	0.909322
5540.000000	0.909468
5538.000000	0.909640
5536.000000	0.909835
5534.000000	0.909789
5532.000000	0.909564
5530.000000	0.909410
5528.000000	0.909462
5526.000000	0.909666
5524.000000	0.909754
5522.000000	0.909803
5520.000000	0.909677
5518.000000	0.909605
5516.000000	0.909645
5514.000000	0.909833
5512.000000	0.909903
5510.000000	0.909777
5508.000000	0.909637
5506.000000	0.909591
5504.000000	0.909774
5502.000000	0.909985
5500.000000	0.910091
5498.000000	0.910047
5496.000000	0.909982
5494.000000	0.910042
5492.000000	0.910063
5490.000000	0.909937
5488.000000	0.909907
5486.000000	0.910119
5484.000000	0.910357
5482.000000	0.910413
5480.000000	0.910396
5478.000000	0.910496
5476.000000	0.910582
5474.000000	0.910585
5472.000000	0.910642
5470.000000	0.910608
5468.000000	0.910489
5466.000000	0.910389
5464.000000	0.910269
5462.000000	0.910154
5460.000000	0.910051
5458.000000	0.909950
5456.000000	0.909723
5454.000000	0.909598
5452.000000	0.909736
5450.000000	0.909810
5448.000000	0.909785
5446.000000	0.909735
5444.000000	0.909908
5442.000000	0.909967
5440.000000	0.909921
5438.000000	0.909795
5436.000000	0.909774
5434.000000	0.909958
5432.000000	0.910183
5430.000000	0.910409
5428.000000	0.910573
5426.000000	0.910703
5424.000000	0.910631
5422.000000	0.910448
5420.000000	0.910299
5418.000000	0.910237
5416.000000	0.910268
5414.000000	0.910280
5412.000000	0.910393
5410.000000	0.910416
5408.000000	0.910374
5406.000000	0.910258
5404.000000	0.910215
5402.000000	0.910364
5400.000000	0.910475
5398.000000	0.910534
5396.000000	0.910379
5394.000000	0.910239
5392.000000	0.910449
5390.000000	0.910775
5388.000000	0.910879
5386.000000	0.910751
5384.000000	0.910719
5382.000000	0.910864
5380.000000	0.910868
5378.000000	0.910685
5376.000000	0.910513
5374.000000	0.910441
5372.000000	0.910607
5370.000000	0.910819
5368.000000	0.910988
5366.000000	0.910935
5364.000000	0.910809
5362.000000	0.910706
5360.000000	0.910560
5358.000000	0.910360
5356.000000	0.910261
5354.000000	0.910470
5352.000000	0.910693
5350.000000	0.910731
5348.000000	0.910707
5346.000000	0.910791
5344.000000	0.911000
5342.000000	0.911147
5340.000000	0.911107
5338.000000	0.910997
5336.000000	0.910901
5334.000000	0.910931
5332.000000	0.910942
5330.000000	0.910929
5328.000000	0.910918
5326.000000	0.910989
5324.000000	0.911064
5322.000000	0.911055
5320.000000	0.911048
5318.000000	0.911245
5316.000000	0.911494
5314.000000	0.911521
5312.000000	0.911445
5310.000000	0.911523
5308.000000	0.911690
5306.000000	0.911737
5304.000000	0.911675
5302.000000	0.911465
5300.000000	0.911272
5298.000000	0.911331
5296.000000	0.911716
5294.000000	0.912051
5292.000000	0.911972
5290.000000	0.911744
5288.000000	0.911696
5286.000000	0.911843
5284.000000	0.912017
5282.000000	0.912139
5280.000000	0.912141
5278.000000	0.912104
5276.000000	0.912141
5274.000000	0.912327
5272.000000	0.912415
5270.000000	0.912422
5268.000000	0.912431
5266.000000	0.912441
5264.000000	0.912431
5262.000000	0.912387
5260.000000	0.912345
5258.000000	0.912465
5256.000000	0.912726
5254.000000	0.912912
5252.000000	0.912975
5250.000000	0.913009
5248.000000	0.913056
5246.000000	0.913081
5244.000000	0.913237
5242.000000	0.913501
5240.000000	0.913606
5238.000000	0.913483
5236.000000	0.913416
5234.000000	0.913627
5232.000000	0.913952
5230.000000	0.914183
5228.000000	0.914275
5226.000000	0.914261
5224.000000	0.914205
5222.000000	0.914233
5220.000000	0.914373
5218.000000	0.914493
5216.000000	0.914447
5214.000000	0.914506
5212.000000	0.914713
5210.000000	0.914932
5208.000000	0.915068
5206.000000	0.915201
5204.000000	0.915264
5202.000000	0.915355
5200.000000	0.915528
5198.000000	0.915691
5196.000000	0.915813
5194.000000	0.915940
5192.000000	0.916186
5190.000000	0.916354
5188.000000	0.916452
5186.000000	0.916491
5184.000000	0.916558
5182.000000	0.916620
5180.000000	0.916565
5178.000000	0.916556
5176.000000	0.916675
5174.000000	0.916901
5172.000000	0.917186
5170.000000	0.917404
5168.000000	0.917455
5166.000000	0.917543
5164.000000	0.917665
5162.000000	0.917718
5160.000000	0.917694
5158.000000	0.917869
5156.000000	0.918194
5154.000000	0.918405
5152.000000	0.918509
5150.000000	0.918593
5148.000000	0.918739
5146.000000	0.918799
5144.000000	0.918777
5142.000000	0.918812
5140.000000	0.918974
5138.000000	0.919181
5136.000000	0.919322
5134.000000	0.919351
5132.000000	0.919406
5130.000000	0.919432
5128.000000	0.919485
5126.000000	0.919727
5124.000000	0.919955
5122.000000	0.919950
5120.000000	0.919822
5118.000000	0.919883
5116.000000	0.920103
5114.000000	0.920315
5112.000000	0.920462
5110.000000	0.920505
5108.000000	0.920527
5106.000000	0.920566
5104.000000	0.920709
5102.000000	0.920900
5100.000000	0.921108
5098.000000	0.921195
5096.000000	0.921288
5094.000000	0.921417
5092.000000	0.921506
5090.000000	0.921472
5088.000000	0.921379
5086.000000	0.921486
5084.000000	0.921671
5082.000000	0.921715
5080.000000	0.921680
5078.000000	0.921682
5076.000000	0.921716
5074.000000	0.921793
5072.000000	0.921864
5070.000000	0.921913
5068.000000	0.921972
5066.000000	0.922051
5064.000000	0.922023
5062.000000	0.921956
5060.000000	0.921927
5058.000000	0.921908
5056.000000	0.921932
5054.000000	0.922046
5052.000000	0.922183
5050.000000	0.922223
5048.000000	0.922269
5046.000000	0.922348
5044.000000	0.922380
5042.000000	0.922372
5040.000000	0.922445
5038.000000	0.922530
5036.000000	0.922422
5034.000000	0.922323
5032.000000	0.922394
5030.000000	0.922581
5028.000000	0.922724
5026.000000	0.922773
5024.000000	0.922864
5022.000000	0.922965
5020.000000	0.923001
5018.000000	0.922870
5016.000000	0.922790
5014.000000	0.922849
5012.000000	0.922928
5010.000000	0.922822
5008.000000	0.922664
5006.000000	0.922663
5004.000000	0.922998
5002.000000	0.923316
5000.000000	0.923366
4998.000000	0.923166
4996.000000	0.922946
4994.000000	0.922766
4992.000000	0.922667
4990.000000	0.922734
4988.000000	0.922835
4986.000000	0.922929
4984.000000	0.922842
4982.000000	0.922653
4980.000000	0.922585
4978.000000	0.922781
4976.000000	0.922973
4974.000000	0.922935
4972.000000	0.922819
4970.000000	0.922720
4968.000000	0.922684
4966.000000	0.922705
4964.000000	0.922802
4962.000000	0.922853
4960.000000	0.922796
4958.000000	0.922824
4956.000000	0.922878
4954.000000	0.922840
4952.000000	0.922697
4950.000000	0.922619
4948.000000	0.922605
4946.000000	0.922620
4944.000000	0.922593
4942.000000	0.922604
4940.000000	0.922690
4938.000000	0.922766
4936.000000	0.922761
4934.000000	0.922692
4932.000000	0.922518
4930.000000	0.922339
4928.000000	0.922244
4926.000000	0.922173
4924.000000	0.922178
4922.000000	0.922352
4920.000000	0.922574
4918.000000	0.922652
4916.000000	0.922684
4914.000000	0.922639
4912.000000	0.922460
4910.000000	0.922337
4908.000000	0.922418
4906.000000	0.922480
4904.000000	0.922279
4902.000000	0.922041
4900.000000	0.922017
4898.000000	0.922195
4896.000000	0.922253
4894.000000	0.922131
4892.000000	0.922015
4890.000000	0.922079
4888.000000	0.922083
4886.000000	0.921965
4884.000000	0.921867
4882.000000	0.921854
4880.000000	0.921838
4878.000000	0.921672
4876.000000	0.921465
4874.000000	0.921379
4872.000000	0.921406
4870.000000	0.921424
4868.000000	0.921379
4866.000000	0.921294
4864.000000	0.921179
4862.000000	0.921125
4860.000000	0.921139
4858.000000	0.921161
4856.000000	0.921173
4854.000000	0.921154
4852.000000	0.921004
4850.000000	0.920826
4848.000000	0.920736
4846.000000	0.920701
4844.000000	0.920642
4842.000000	0.920651
4840.000000	0.920688
4838.000000	0.920616
4836.000000	0.920517
4834.000000	0.920462
4832.000000	0.920359
4830.000000	0.920215
4828.000000	0.920241
4826.000000	0.920332
4824.000000	0.920174
4822.000000	0.919765
4820.000000	0.919507
4818.000000	0.919517
4816.000000	0.919684
4814.000000	0.919735
4812.000000	0.919598
4810.000000	0.919404
4808.000000	0.919391
4806.000000	0.919379
4804.000000	0.919299
4802.000000	0.919194
4800.000000	0.919102
4798.000000	0.918960
4796.000000	0.918889
4794.000000	0.918818
4792.000000	0.918660
4790.000000	0.918497
4788.000000	0.918375
4786.000000	0.918204
4784.000000	0.918070
4782.000000	0.917980
4780.000000	0.917983
4778.000000	0.918005
4776.000000	0.917933
4774.000000	0.917700
4772.000000	0.917481
4770.000000	0.917338
4768.000000	0.917146
4766.000000	0.917044
4764.000000	0.917151
4762.000000	0.917257
4760.000000	0.917087
4758.000000	0.916926
4756.000000	0.916923
4754.000000	0.916825
4752.000000	0.916547
4750.000000	0.916328
4748.000000	0.916235
4746.000000	0.916231
4744.000000	0.916256
4742.000000	0.916291
4740.000000	0.916221
4738.000000	0.916053
4736.000000	0.915943
4734.000000	0.915905
4732.000000	0.915779
4730.000000	0.915607
4728.000000	0.915472
4726.000000	0.915347
4724.000000	0.915241
4722.000000	0.915193
4720.000000	0.915142
4718.000000	0.915090
4716.000000	0.915037
4714.000000	0.914973
4712.000000	0.914869
4710.000000	0.914741
4708.000000	0.914620
4706.000000	0.914530
4704.000000	0.914497
4702.000000	0.914446
4700.000000	0.914312
4698.000000	0.914127
4696.000000	0.914132
4694.000000	0.914284
4692.000000	0.914331
4690.000000	0.914129
4688.000000	0.913919
4686.000000	0.913812
4684.000000	0.913773
4682.000000	0.913726
4680.000000	0.913666
4678.000000	0.913637
4676.000000	0.913532
4674.000000	0.913362
4672.000000	0.913192
4670.000000	0.913150
4668.000000	0.913181
4666.000000	0.913224
4664.000000	0.913150
4662.000000	0.913076
4660.000000	0.913098
4658.000000	0.913125
4656.000000	0.913024
4654.000000	0.912887
4652.000000	0.912791
4650.000000	0.912746
4648.000000	0.912709
4646.000000	0.912697
4644.000000	0.912652
4642.000000	0.912534
4640.000000	0.912482
4638.000000	0.912594
4636.000000	0.912672
4634.000000	0.912530
4632.000000	0.912350
4630.000000	0.912301
4628.000000	0.912347
4626.000000	0.912343
4624.000000	0.912279
4622.000000	0.912192
4620.000000	0.912109
4618.000000	0.912075
4616.000000	0.912137
4614.000000	0.912185
4612.000000	0.912117
4610.000000	0.912004
4608.000000	0.911934
4606.000000	0.911896
4604.000000	0.911875
4602.000000	0.911877
4600.000000	0.911856
4598.000000	0.911846
4596.000000	0.911820
4594.000000	0.911730
4592.000000	0.911614
4590.000000	0.911554
4588.000000	0.911538
4586.000000	0.911516
4584.000000	0.911456
4582.000000	0.911465
4580.000000	0.911570
4578.000000	0.911559
4576.000000	0.911398
4574.000000	0.911290
4572.000000	0.911307
4570.000000	0.911401
4568.000000	0.911434
4566.000000	0.911374
4564.000000	0.911287
4562.000000	0.911275
4560.000000	0.911262
4558.000000	0.911192
4556.000000	0.911050
4554.000000	0.910964
4552.000000	0.910988
4550.000000	0.911097
4548.000000	0.911148
4546.000000	0.911121
4544.000000	0.911094
4542.000000	0.911114
4540.000000	0.911112
4538.000000	0.911027
4536.000000	0.910925
4534.000000	0.910992
4532.000000	0.911148
4530.000000	0.911174
4528.000000	0.911038
4526.000000	0.910938
4524.000000	0.910956
4522.000000	0.910984
4520.000000	0.910885
4518.000000	0.910779
4516.000000	0.910777
4514.000000	0.910782
4512.000000	0.910692
4510.000000	0.910668
4508.000000	0.910779
4506.000000	0.910814
4504.000000	0.910717
4502.000000	0.910634
4500.000000	0.910646
4498.000000	0.910669
4496.000000	0.910674
4494.000000	0.910640
4492.000000	0.910541
4490.000000	0.910426
4488.000000	0.910390
4486.000000	0.910373
4484.000000	0.910340
4482.000000	0.910376
4480.000000	0.910452
4478.000000	0.910444
4476.000000	0.910354
4474.000000	0.910328
4472.000000	0.910385
4470.000000	0.910333
4468.000000	0.910229
4466.000000	0.910246
4464.000000	0.910361
4462.000000	0.910464
4460.000000	0.910534
4458.000000	0.910486
4456.000000	0.910335
4454.000000	0.910194
4452.000000	0.910199
4450.000000	0.910285
4448.000000	0.910272
4446.000000	0.910224
4444.000000	0.910294
4442.000000	0.910440
4440.000000	0.910538
4438.000000	0.910510
4436.000000	0.910381
4434.000000	0.910266
4432.000000	0.910210
4430.000000	0.910212
4428.000000	0.910271
4426.000000	0.910308
4424.000000	0.910275
4422.000000	0.910230
4420.000000	0.910224
4418.000000	0.910275
4416.000000	0.910361
4414.000000	0.910396
4412.000000	0.910341
4410.000000	0.910302
4408.000000	0.910315
4406.000000	0.910378
4404.000000	0.910467
4402.000000	0.910445
4400.000000	0.910215
4398.000000	0.910052
4396.000000	0.910100
4394.000000	0.910204
4392.000000	0.910276
4390.000000	0.910318
4388.000000	0.910294
4386.000000	0.910260
4384.000000	0.910307
4382.000000	0.910365
4380.000000	0.910329
4378.000000	0.910179
4376.000000	0.910098
4374.000000	0.910168
4372.000000	0.910364
4370.000000	0.910541
4368.000000	0.910549
4366.000000	0.910445
4364.000000	0.910462
4362.000000	0.910532
4360.000000	0.910572
4358.000000	0.910550
4356.000000	0.910513
4354.000000	0.910593
4352.000000	0.910735
4350.000000	0.910769
4348.000000	0.910714
4346.000000	0.910683
4344.000000	0.910722
4342.000000	0.910793
4340.000000	0.910877
4338.000000	0.910980
4336.000000	0.910991
4334.000000	0.910886
4332.000000	0.910831
4330.000000	0.910902
4328.000000	0.911021
4326.000000	0.911056
4324.000000	0.910950
4322.000000	0.910881
4320.000000	0.910959
4318.000000	0.911057
4316.000000	0.911153
4314.000000	0.911217
4312.000000	0.911183
4310.000000	0.911153
4308.000000	0.911149
4306.000000	0.911146
4304.000000	0.911183
4302.000000	0.911274
4300.000000	0.911360
4298.000000	0.911398
4296.000000	0.911459
4294.000000	0.911517
4292.000000	0.911454
4290.000000	0.911333
4288.000000	0.911276
4286.000000	0.911359
4284.000000	0.911473
4282.000000	0.911447
4280.000000	0.911410
4278.000000	0.911530
4276.000000	0.911675
4274.000000	0.911682
4272.000000	0.911652
4270.000000	0.911719
4268.000000	0.911819
4266.000000	0.911869
4264.000000	0.911873
4262.000000	0.911842
4260.000000	0.911861
4258.000000	0.911918
4256.000000	0.911917
4254.000000	0.911894
4252.000000	0.911879
4250.000000	0.911845
4248.000000	0.911911
4246.000000	0.912035
4244.000000	0.912017
4242.000000	0.911952
4240.000000	0.911961
4238.000000	0.911959
4236.000000	0.912012
4234.000000	0.912128
4232.000000	0.912167
4230.000000	0.912167
4228.000000	0.912221
4226.000000	0.912241
4224.000000	0.912206
4222.000000	0.912182
4220.000000	0.912205
4218.000000	0.912221
4216.000000	0.912206
4214.000000	0.912223
4212.000000	0.912254
4210.000000	0.912185
4208.000000	0.912107
4206.000000	0.912100
4204.000000	0.912164
4202.000000	0.912210
4200.000000	0.912129
4198.000000	0.912053
4196.000000	0.912164
4194.000000	0.912277
4192.000000	0.912286
4190.000000	0.912253
4188.000000	0.912140
4186.000000	0.912048
4184.000000	0.912128
4182.000000	0.912203
4180.000000	0.912160
4178.000000	0.912093
4176.000000	0.912025
4174.000000	0.911967
4172.000000	0.911973
4170.000000	0.912033
4168.000000	0.912074
4166.000000	0.912109
4164.000000	0.912187
4162.000000	0.912236
4160.000000	0.912220
4158.000000	0.912180
4156.000000	0.912149
4154.000000	0.912151
4152.000000	0.912167
4150.000000	0.912182
4148.000000	0.912186
4146.000000	0.912161
4144.000000	0.912147
4142.000000	0.912170
4140.000000	0.912150
4138.000000	0.912098
4136.000000	0.912120
4134.000000	0.912147
4132.000000	0.912177
4130.000000	0.912236
4128.000000	0.912197
4126.000000	0.912153
4124.000000	0.912201
4122.000000	0.912233
4120.000000	0.912235
4118.000000	0.912180
4116.000000	0.912058
4114.000000	0.912076
4112.000000	0.912197
4110.000000	0.912179
4108.000000	0.912066
4106.000000	0.911992
4104.000000	0.911994
4102.000000	0.912001
4100.000000	0.911909
4098.000000	0.911799
4096.000000	0.911785
4094.000000	0.911834
4092.000000	0.911849
4090.000000	0.911878
4088.000000	0.911914
4086.000000	0.911901
4084.000000	0.911900
4082.000000	0.911865
4080.000000	0.911781
4078.000000	0.911761
4076.000000	0.911789
4074.000000	0.911797
4072.000000	0.911794
4070.000000	0.911847
4068.000000	0.911907
4066.000000	0.911876
4064.000000	0.911789
4062.000000	0.911722
4060.000000	0.911747
4058.000000	0.911841
4056.000000	0.911886
4054.000000	0.911884
4052.000000	0.911855
4050.000000	0.911778
4048.000000	0.911716
4046.000000	0.911687
4044.000000	0.911663
4042.000000	0.911665
4040.000000	0.911641
4038.000000	0.911538
4036.000000	0.911475
4034.000000	0.911500
4032.000000	0.911533
4030.000000	0.911554
4028.000000	0.911513
4026.000000	0.911397
4024.000000	0.911359
4022.000000	0.911377
4020.000000	0.911331
4018.000000	0.911291
4016.000000	0.911309
4014.000000	0.911324
4012.000000	0.911257
4010.000000	0.911190
4008.000000	0.911198
4006.000000	0.911159
4004.000000	0.911147
4002.000000	0.911240
4000.000000	0.911236
3998.000000	0.911087
3996.000000	0.910978
3994.000000	0.910992
3992.000000	0.911003
3990.000000	0.910948
3988.000000	0.910915
3986.000000	0.910918
3984.000000	0.910933
3982.000000	0.910945
3980.000000	0.910908
3978.000000	0.910831
3976.000000	0.910796
3974.000000	0.910734
3972.000000	0.910633
3970.000000	0.910631
3968.000000	0.910617
3966.000000	0.910498
3964.000000	0.910436
3962.000000	0.910392
3960.000000	0.910316
3958.000000	0.910242
3956.000000	0.910185
3954.000000	0.910180
3952.000000	0.910152
3950.000000	0.910121
3948.000000	0.910065
3946.000000	0.909932
3944.000000	0.909831
3942.000000	0.909750
3940.000000	0.909702
3938.000000	0.909691
3936.000000	0.909609
3934.000000	0.909482
3932.000000	0.909401
3930.000000	0.909355
3928.000000	0.909294
3926.000000	0.909222
3924.000000	0.909204
3922.000000	0.909202
3920.000000	0.909081
3918.000000	0.908895
3916.000000	0.908835
3914.000000	0.908848
3912.000000	0.908765
3910.000000	0.908698
3908.000000	0.908699
3906.000000	0.908580
3904.000000	0.908326
3902.000000	0.908022
3900.000000	0.907770
3898.000000	0.907767
3896.000000	0.907925
3894.000000	0.907940
3892.000000	0.907747
3890.000000	0.907586
3888.000000	0.907590
3886.000000	0.907473
3884.000000	0.907298
3882.000000	0.907238
3880.000000	0.907099
3878.000000	0.907049
3876.000000	0.907112
3874.000000	0.907058
3872.000000	0.906947
3870.000000	0.906691
3868.000000	0.906509
3866.000000	0.906579
3864.000000	0.906593
3862.000000	0.906497
3860.000000	0.906432
3858.000000	0.906497
3856.000000	0.906378
3854.000000	0.905671
3852.000000	0.905070
3850.000000	0.905289
3848.000000	0.905793
3846.000000	0.905943
3844.000000	0.905795
3842.000000	0.905658
3840.000000	0.905547
3838.000000	0.905235
3836.000000	0.904995
3834.000000	0.905071
3832.000000	0.905142
3830.000000	0.905109
3828.000000	0.905041
3826.000000	0.904972
3824.000000	0.904976
3822.000000	0.904756
3820.000000	0.904465
3818.000000	0.904463
3816.000000	0.904279
3814.000000	0.904049
3812.000000	0.904203
3810.000000	0.904336
3808.000000	0.904137
3806.000000	0.903912
3804.000000	0.903938
3802.000000	0.903747
3800.000000	0.903462
3798.000000	0.903578
3796.000000	0.903707
3794.000000	0.903707
3792.000000	0.903715
3790.000000	0.903696
3788.000000	0.903697
3786.000000	0.903662
3784.000000	0.903590
3782.000000	0.903514
3780.000000	0.903354
3778.000000	0.903259
3776.000000	0.903345
3774.000000	0.903433
3772.000000	0.903397
3770.000000	0.903183
3768.000000	0.903023
3766.000000	0.903027
3764.000000	0.903077
3762.000000	0.903169
3760.000000	0.903172
3758.000000	0.903059
3756.000000	0.903093
3754.000000	0.903161
3752.000000	0.902883
3750.000000	0.902518
3748.000000	0.902586
3746.000000	0.902715
3744.000000	0.902389
3742.000000	0.902396
3740.000000	0.902948
3738.000000	0.903239
3736.000000	0.903131
3734.000000	0.903023
3732.000000	0.903032
3730.000000	0.903179
3728.000000	0.903473
3726.000000	0.903629
3724.000000	0.903654
3722.000000	0.903684
3720.000000	0.903784
3718.000000	0.903919
3716.000000	0.904100
3714.000000	0.904238
3712.000000	0.904160
3710.000000	0.904086
3708.000000	0.904247
3706.000000	0.904621
3704.000000	0.904998
3702.000000	0.905197
3700.000000	0.905327
3698.000000	0.905572
3696.000000	0.905906
3694.000000	0.906226
3692.000000	0.906475
3690.000000	0.906555
3688.000000	0.906526
3686.000000	0.906816
3684.000000	0.907428
3682.000000	0.907991
3680.000000	0.908479
3678.000000	0.908849
3676.000000	0.908856
3674.000000	0.909029
3672.000000	0.909662
3670.000000	0.910036
3668.000000	0.910413
3666.000000	0.911197
3664.000000	0.911965
3662.000000	0.912588
3660.000000	0.913247
3658.000000	0.913805
3656.000000	0.914233
3654.000000	0.914909
3652.000000	0.915673
3650.000000	0.916056
3648.000000	0.916383
3646.000000	0.917140
3644.000000	0.918133
3642.000000	0.919031
3640.000000	0.919830
3638.000000	0.920640
3636.000000	0.921385
3634.000000	0.922105
3632.000000	0.922888
3630.000000	0.923444
3628.000000	0.923923
3626.000000	0.924861
3624.000000	0.925954
3622.000000	0.926779
3620.000000	0.927371
3618.000000	0.927955
3616.000000	0.928752
3614.000000	0.929556
3612.000000	0.930261
3610.000000	0.930975
3608.000000	0.931694
3606.000000	0.932540
3604.000000	0.933378
3602.000000	0.933995
3600.000000	0.934526
3598.000000	0.935118
3596.000000	0.935766
3594.000000	0.936411
3592.000000	0.937073
3590.000000	0.937693
3588.000000	0.938095
3586.000000	0.938427
3584.000000	0.938963
3582.000000	0.939523
3580.000000	0.939989
3578.000000	0.940420
3576.000000	0.940789
3574.000000	0.941187
3572.000000	0.941623
3570.000000	0.941937
3568.000000	0.942091
3566.000000	0.942239
3564.000000	0.942594
3562.000000	0.942997
3560.000000	0.943222
3558.000000	0.943443
3556.000000	0.943715
3554.000000	0.943897
3552.000000	0.944025
3550.000000	0.944233
3548.000000	0.944501
3546.000000	0.944699
3544.000000	0.944862
3542.000000	0.945092
3540.000000	0.945324
3538.000000	0.945434
3536.000000	0.945471
3534.000000	0.945576
3532.000000	0.945732
3530.000000	0.945879
3528.000000	0.946050
3526.000000	0.946233
3524.000000	0.946373
3522.000000	0.946495
3520.000000	0.946628
3518.000000	0.946773
3516.000000	0.946939
3514.000000	0.947116
3512.000000	0.947360
3510.000000	0.947581
3508.000000	0.947804
3506.000000	0.948131
3504.000000	0.948314
3502.000000	0.948393
3500.000000	0.948600
3498.000000	0.948903
3496.000000	0.949223
3494.000000	0.949455
3492.000000	0.949656
3490.000000	0.949870
3488.000000	0.950088
3486.000000	0.950301
3484.000000	0.950566
3482.000000	0.950821
3480.000000	0.951028
3478.000000	0.951268
3476.000000	0.951486
3474.000000	0.951695
3472.000000	0.951909
3470.000000	0.952121
3468.000000	0.952369
3466.000000	0.952620
3464.000000	0.952878
3462.000000	0.953114
3460.000000	0.953352
3458.000000	0.953547
3456.000000	0.953770
3454.000000	0.954108
3452.000000	0.954330
3450.000000	0.954446
3448.000000	0.954642
3446.000000	0.954907
3444.000000	0.955122
3442.000000	0.955257
3440.000000	0.955380
3438.000000	0.955488
3436.000000	0.955589
3434.000000	0.955743
3432.000000	0.955881
3430.000000	0.955954
3428.000000	0.956092
3426.000000	0.956343
3424.000000	0.956587
3422.000000	0.956699
3420.000000	0.956730
3418.000000	0.956775
3416.000000	0.956918
3414.000000	0.957138
3412.000000	0.957250
3410.000000	0.957355
3408.000000	0.957490
3406.000000	0.957577
3404.000000	0.957696
3402.000000	0.957794
3400.000000	0.957873
3398.000000	0.958007
3396.000000	0.958147
3394.000000	0.958169
3392.000000	0.958168
3390.000000	0.958229
3388.000000	0.958255
3386.000000	0.958257
3384.000000	0.958321
3382.000000	0.958462
3380.000000	0.958594
3378.000000	0.958650
3376.000000	0.958690
3374.000000	0.958697
3372.000000	0.958759
3370.000000	0.958826
3368.000000	0.958823
3366.000000	0.958839
3364.000000	0.958898
3362.000000	0.958922
3360.000000	0.958949
3358.000000	0.959022
3356.000000	0.959063
3354.000000	0.959131
3352.000000	0.959177
3350.000000	0.959144
3348.000000	0.959134
3346.000000	0.959224
3344.000000	0.959314
3342.000000	0.959322
3340.000000	0.959323
3338.000000	0.959307
3336.000000	0.959333
3334.000000	0.959405
3332.000000	0.959403
3330.000000	0.959402
3328.000000	0.959483
3326.000000	0.959556
3324.000000	0.959611
3322.000000	0.959710
3320.000000	0.959798
3318.000000	0.959853
3316.000000	0.959868
3314.000000	0.959813
3312.000000	0.959882
3310.000000	0.959969
3308.000000	0.959925
3306.000000	0.959936
3304.000000	0.960121
3302.000000	0.960252
3300.000000	0.960258
3298.000000	0.960308
3296.000000	0.960353
3294.000000	0.960313
3292.000000	0.960330
3290.000000	0.960337
3288.000000	0.960364
3286.000000	0.960449
3284.000000	0.960527
3282.000000	0.960600
3280.000000	0.960668
3278.000000	0.960779
3276.000000	0.960858
3274.000000	0.960853
3272.000000	0.960864
3270.000000	0.960915
3268.000000	0.960988
3266.000000	0.961033
3264.000000	0.961062
3262.000000	0.961122
3260.000000	0.961200
3258.000000	0.961224
3256.000000	0.961200
3254.000000	0.961269
3252.000000	0.961407
3250.000000	0.961543
3248.000000	0.961625
3246.000000	0.961626
3244.000000	0.961596
3242.000000	0.961582
3240.000000	0.961593
3238.000000	0.961593
3236.000000	0.961645
3234.000000	0.961710
3232.000000	0.961741
3230.000000	0.961754
3228.000000	0.961738
3226.000000	0.961746
3224.000000	0.961771
3222.000000	0.961804
3220.000000	0.961942
3218.000000	0.962064
3216.000000	0.962031
3214.000000	0.961982
3212.000000	0.962016
3210.000000	0.962045
3208.000000	0.962078
3206.000000	0.962120
3204.000000	0.962222
3202.000000	0.962277
3200.000000	0.962225
3198.000000	0.962202
3196.000000	0.962275
3194.000000	0.962390
3192.000000	0.962421
3190.000000	0.962384
3188.000000	0.962376
3186.000000	0.962403
3184.000000	0.962429
3182.000000	0.962480
3180.000000	0.962534
3178.000000	0.962564
3176.000000	0.962550
3174.000000	0.962562
3172.000000	0.962603
3170.000000	0.962590
3168.000000	0.962541
3166.000000	0.962597
3164.000000	0.962709
3162.000000	0.962760
3160.000000	0.962824
3158.000000	0.962892
3156.000000	0.962872
3154.000000	0.962816
3152.000000	0.962870
3150.000000	0.962958
3148.000000	0.962966
3146.000000	0.962989
3144.000000	0.963015
3142.000000	0.963067
3140.000000	0.963070
3138.000000	0.963014
3136.000000	0.963075
3134.000000	0.963174
3132.000000	0.963213
3130.000000	0.963199
3128.000000	0.963125
3126.000000	0.963148
3124.000000	0.963321
3122.000000	0.963384
3120.000000	0.963388
3118.000000	0.963417
3116.000000	0.963459
3114.000000	0.963494
3112.000000	0.963474
3110.000000	0.963458
3108.000000	0.963455
3106.000000	0.963477
3104.000000	0.963532
3102.000000	0.963585
3100.000000	0.963605
3098.000000	0.963601
3096.000000	0.963635
3094.000000	0.963651
3092.000000	0.963688
3090.000000	0.963766
3088.000000	0.963787
3086.000000	0.963803
3084.000000	0.963814
3082.000000	0.963844
3080.000000	0.963886
3078.000000	0.963908
3076.000000	0.963936
3074.000000	0.963967
3072.000000	0.963939
3070.000000	0.963891
3068.000000	0.963902
3066.000000	0.963939
3064.000000	0.964020
3062.000000	0.964026
3060.000000	0.963982
3058.000000	0.964004
3056.000000	0.964008
3054.000000	0.964023
3052.000000	0.964076
3050.000000	0.964083
3048.000000	0.964071
3046.000000	0.964085
3044.000000	0.964140
3042.000000	0.964104
3040.000000	0.964032
3038.000000	0.964028
3036.000000	0.964017
3034.000000	0.964081
3032.000000	0.964178
3030.000000	0.964122
3028.000000	0.964136
3026.000000	0.964277
3024.000000	0.964315
3022.000000	0.964276
3020.000000	0.964234
3018.000000	0.964215
3016.000000	0.964108
3014.000000	0.963948
3012.000000	0.963928
3010.000000	0.964037
3008.000000	0.964130
3006.000000	0.964150
3004.000000	0.964142
3002.000000	0.964086
3000.000000	0.964070
2998.000000	0.964121
2996.000000	0.964175
2994.000000	0.964148
2992.000000	0.964074
2990.000000	0.964078
2988.000000	0.964149
2986.000000	0.964210
2984.000000	0.964256
2982.000000	0.964273
2980.000000	0.964315
2978.000000	0.964445
2976.000000	0.964542
2974.000000	0.964681
2972.000000	0.964926
2970.000000	0.965202
2968.000000	0.965359
2966.000000	0.965413
2964.000000	0.965406
2962.000000	0.965188
2960.000000	0.964832
2958.000000	0.964502
2956.000000	0.964215
2954.000000	0.964013
2952.000000	0.963878
2950.000000	0.963748
2948.000000	0.963693
2946.000000	0.963720
2944.000000	0.963706
2942.000000	0.963675
2940.000000	0.963642
2938.000000	0.963545
2936.000000	0.963439
2934.000000	0.963374
2932.000000	0.963309
2930.000000	0.963188
2928.000000	0.963053
2926.000000	0.962819
2924.000000	0.962432
2922.000000	0.962108
2920.000000	0.961919
2918.000000	0.961773
2916.000000	0.961688
2914.000000	0.961694
2912.000000	0.961777
2910.000000	0.961856
2908.000000	0.961831
2906.000000	0.961704
2904.000000	0.961591
2902.000000	0.961517
2900.000000	0.961423
2898.000000	0.961317
2896.000000	0.961201
2894.000000	0.961096
2892.000000	0.961014
2890.000000	0.960903
2888.000000	0.960766
2886.000000	0.960646
2884.000000	0.960520
2882.000000	0.960408
2880.000000	0.960353
2878.000000	0.960245
2876.000000	0.960064
2874.000000	0.959925
2872.000000	0.959867
2870.000000	0.959850
2868.000000	0.959783
2866.000000	0.959671
2864.000000	0.959527
2862.000000	0.959234
2860.000000	0.958903
2858.000000	0.958658
2856.000000	0.958483
2854.000000	0.958192
2852.000000	0.957907
2850.000000	0.957762
2848.000000	0.957649
2846.000000	0.957495
2844.000000	0.957348
2842.000000	0.957287
2840.000000	0.957280
2838.000000	0.957188
2836.000000	0.957074
2834.000000	0.957004
2832.000000	0.956891
2830.000000	0.956774
2828.000000	0.956697
2826.000000	0.956601
2824.000000	0.956532
2822.000000	0.956526
2820.000000	0.956413
2818.000000	0.956234
2816.000000	0.956088
2814.000000	0.955928
2812.000000	0.955808
2810.000000	0.955745
2808.000000	0.955678
2806.000000	0.955570
2804.000000	0.955433
2802.000000	0.955360
2800.000000	0.955309
2798.000000	0.955221
2796.000000	0.955113
2794.000000	0.955003
2792.000000	0.954898
2790.000000	0.954795
2788.000000	0.954706
2786.000000	0.954686
2784.000000	0.954666
2782.000000	0.954564
2780.000000	0.954425
2778.000000	0.954310
2776.000000	0.954263
2774.000000	0.954278
2772.000000	0.954314
2770.000000	0.954268
2768.000000	0.954165
2766.000000	0.954065
2764.000000	0.954003
2762.000000	0.953959
2760.000000	0.953878
2758.000000	0.953802
2756.000000	0.953793
2754.000000	0.953769
2752.000000	0.953716
2750.000000	0.953691
2748.000000	0.953695
2746.000000	0.953656
2744.000000	0.953619
2742.000000	0.953607
2740.000000	0.953603
2738.000000	0.953584
2736.000000	0.953529
2734.000000	0.953468
2732.000000	0.953431
2730.000000	0.953460
2728.000000	0.953442
2726.000000	0.953408
2724.000000	0.953460
2722.000000	0.953480
2720.000000	0.953479
2718.000000	0.953481
2716.000000	0.953426
2714.000000	0.953445
2712.000000	0.953500
2710.000000	0.953469
2708.000000	0.953456
2706.000000	0.953524
2704.000000	0.953603
2702.000000	0.953585
2700.000000	0.953559
2698.000000	0.953603
2696.000000	0.953646
2694.000000	0.953661
2692.000000	0.953661
2690.000000	0.953719
2688.000000	0.953797
2686.000000	0.953822
2684.000000	0.953875
2682.000000	0.953966
2680.000000	0.954029
2678.000000	0.954089
2676.000000	0.954189
2674.000000	0.954254
2672.000000	0.954260
2670.000000	0.954299
2668.000000	0.954353
2666.000000	0.954409
2664.000000	0.954535
2662.000000	0.954632
2660.000000	0.954698
2658.000000	0.954755
2656.000000	0.954819
2654.000000	0.954959
2652.000000	0.955083
2650.000000	0.955113
2648.000000	0.955135
2646.000000	0.955191
2644.000000	0.955280
2642.000000	0.955364
2640.000000	0.955438
2638.000000	0.955547
2636.000000	0.955673
2634.000000	0.955799
2632.000000	0.955908
2630.000000	0.955997
2628.000000	0.956051
2626.000000	0.956103
2624.000000	0.956172
2622.000000	0.956269
2620.000000	0.956388
2618.000000	0.956471
2616.000000	0.956601
2614.000000	0.956741
2612.000000	0.956832
2610.000000	0.956875
2608.000000	0.956927
2606.000000	0.957052
2604.000000	0.957162
2602.000000	0.957208
2600.000000	0.957252
2598.000000	0.957381
2596.000000	0.957546
2594.000000	0.957640
2592.000000	0.957776
2590.000000	0.957938
2588.000000	0.958052
2586.000000	0.958110
2584.000000	0.958189
2582.000000	0.958261
2580.000000	0.958311
2578.000000	0.958416
2576.000000	0.958537
2574.000000	0.958598
2572.000000	0.958644
2570.000000	0.958699
2568.000000	0.958773
2566.000000	0.958862
2564.000000	0.958960
2562.000000	0.959086
2560.000000	0.959167
2558.000000	0.959223
2556.000000	0.959353
2554.000000	0.959505
2552.000000	0.959594
2550.000000	0.959646
2548.000000	0.959704
2546.000000	0.959763
2544.000000	0.959885
2542.000000	0.960059
2540.000000	0.960182
2538.000000	0.960223
2536.000000	0.960285
2534.000000	0.960381
2532.000000	0.960491
2530.000000	0.960558
2528.000000	0.960644
2526.000000	0.960805
2524.000000	0.960921
2522.000000	0.961010
2520.000000	0.961056
2518.000000	0.961100
2516.000000	0.961175
2514.000000	0.961297
2512.000000	0.961409
2510.000000	0.961493
2508.000000	0.961626
2506.000000	0.961786
2504.000000	0.961918
2502.000000	0.962010
2500.000000	0.962103
2498.000000	0.962213
2496.000000	0.962346
2494.000000	0.962485
2492.000000	0.962579
2490.000000	0.962728
2488.000000	0.962949
2486.000000	0.963148
2484.000000	0.963314
2482.000000	0.963450
2480.000000	0.963554
2478.000000	0.963695
2476.000000	0.963876
2474.000000	0.964040
2472.000000	0.964204
2470.000000	0.964365
2468.000000	0.964566
2466.000000	0.964762
2464.000000	0.964882
2462.000000	0.965065
2460.000000	0.965285
2458.000000	0.965426
2456.000000	0.965528
2454.000000	0.965655
2452.000000	0.965804
2450.000000	0.965933
2448.000000	0.966086
2446.000000	0.966295
2444.000000	0.966473
2442.000000	0.966557
2440.000000	0.966673
2438.000000	0.966801
2436.000000	0.966908
2434.000000	0.966990
2432.000000	0.967046
2430.000000	0.967136
2428.000000	0.967194
2426.000000	0.967156
2424.000000	0.967095
2422.000000	0.967077
2420.000000	0.967063
2418.000000	0.966949
2416.000000	0.966796
2414.000000	0.966667
2412.000000	0.966554
2410.000000	0.966401
2408.000000	0.966287
2406.000000	0.966245
2404.000000	0.966192
2402.000000	0.966131
2400.000000	0.966063
2398.000000	0.965994
2396.000000	0.965919
2394.000000	0.965888
2392.000000	0.965967
2390.000000	0.966072
2388.000000	0.966043
2386.000000	0.965953
2384.000000	0.965954
2382.000000	0.966023
2380.000000	0.966063
2378.000000	0.966045
2376.000000	0.966048
2374.000000	0.966057
2372.000000	0.966069
2370.000000	0.966090
2368.000000	0.966086
2366.000000	0.966071
2364.000000	0.966037
2362.000000	0.966006
2360.000000	0.966059
2358.000000	0.966087
2356.000000	0.966135
2354.000000	0.966285
2352.000000	0.966415
2350.000000	0.966601
2348.000000	0.966863
2346.000000	0.967136
2344.000000	0.967460
2342.000000	0.967772
2340.000000	0.967849
2338.000000	0.967591
2336.000000	0.967287
2334.000000	0.967140
2332.000000	0.967105
2330.000000	0.967204
2328.000000	0.967309
2326.000000	0.967406
2324.000000	0.967545
2322.000000	0.967629
2320.000000	0.967694
2318.000000	0.967776
2316.000000	0.967852
2314.000000	0.967962
2312.000000	0.968137
2310.000000	0.968219
2308.000000	0.968234
2306.000000	0.968336
2304.000000	0.968427
2302.000000	0.968484
2300.000000	0.968592
2298.000000	0.968662
2296.000000	0.968756
2294.000000	0.968904
2292.000000	0.968997
2290.000000	0.969012
2288.000000	0.968983
2286.000000	0.969081
2284.000000	0.969204
2282.000000	0.969251
2280.000000	0.969314
2278.000000	0.969387
2276.000000	0.969470
2274.000000	0.969598
2272.000000	0.969619
2270.000000	0.969631
2268.000000	0.969719
2266.000000	0.969807
2264.000000	0.969867
2262.000000	0.969850
2260.000000	0.969816
2258.000000	0.969892
2256.000000	0.970024
2254.000000	0.970068
2252.000000	0.970079
2250.000000	0.970148
2248.000000	0.970204
2246.000000	0.970214
2244.000000	0.970225
2242.000000	0.970296
2240.000000	0.970373
2238.000000	0.970457
2236.000000	0.970504
2234.000000	0.970505
2232.000000	0.970544
2230.000000	0.970594
2228.000000	0.970639
2226.000000	0.970675
2224.000000	0.970686
2222.000000	0.970658
2220.000000	0.970676
2218.000000	0.970679
2216.000000	0.970669
2214.000000	0.970681
2212.000000	0.970722
2210.000000	0.970750
2208.000000	0.970773
2206.000000	0.970797
2204.000000	0.970784
2202.000000	0.970702
2200.000000	0.970674
2198.000000	0.970662
2196.000000	0.970620
2194.000000	0.970597
2192.000000	0.970551
2190.000000	0.970465
2188.000000	0.970457
2186.000000	0.970469
2184.000000	0.970410
2182.000000	0.970382
2180.000000	0.970395
2178.000000	0.970352
2176.000000	0.970297
2174.000000	0.970231
2172.000000	0.970212
2170.000000	0.970162
2168.000000	0.970074
2166.000000	0.970028
2164.000000	0.969915
2162.000000	0.969839
2160.000000	0.969853
2158.000000	0.969793
2156.000000	0.969678
2154.000000	0.969600
2152.000000	0.969550
2150.000000	0.969448
2148.000000	0.969307
2146.000000	0.969207
2144.000000	0.969106
2142.000000	0.969073
2140.000000	0.969040
2138.000000	0.968916
2136.000000	0.968833
2134.000000	0.968799
2132.000000	0.968710
2130.000000	0.968592
2128.000000	0.968481
2126.000000	0.968331
2124.000000	0.968192
2122.000000	0.968138
2120.000000	0.968083
2118.000000	0.967984
2116.000000	0.967891
2114.000000	0.967724
2112.000000	0.967559
2110.000000	0.967444
2108.000000	0.967369
2106.000000	0.967224
2104.000000	0.967047
2102.000000	0.966917
2100.000000	0.966841
2098.000000	0.966759
2096.000000	0.966692
2094.000000	0.966566
2092.000000	0.966312
2090.000000	0.966171
2088.000000	0.966152
2086.000000	0.966089
2084.000000	0.965980
2082.000000	0.965834
2080.000000	0.965673
2078.000000	0.965576
2076.000000	0.965473
2074.000000	0.965291
2072.000000	0.965139
2070.000000	0.965134
2068.000000	0.965086
2066.000000	0.964908
2064.000000	0.964736
2062.000000	0.964632
2060.000000	0.964511
2058.000000	0.964386
2056.000000	0.964254
2054.000000	0.964168
2052.000000	0.964099
2050.000000	0.963960
2048.000000	0.963834
2046.000000	0.963721
2044.000000	0.963561
2042.000000	0.963446
2040.000000	0.963378
2038.000000	0.963261
2036.000000	0.963110
2034.000000	0.963001
2032.000000	0.962961
2030.000000	0.962896
2028.000000	0.962761
2026.000000	0.962635
2024.000000	0.962526
2022.000000	0.962396
2020.000000	0.962289
2018.000000	0.962224
2016.000000	0.962155
2014.000000	0.962049
2012.000000	0.961938
2010.000000	0.961874
2008.000000	0.961822
2006.000000	0.961736
2004.000000	0.961641
2002.000000	0.961542
2000.000000	0.961398
1998.000000	0.961372
1996.000000	0.961394
1994.000000	0.961308
1992.000000	0.961153
1990.000000	0.961066
1988.000000	0.961071
1986.000000	0.961022
1984.000000	0.960934
1982.000000	0.960863
1980.000000	0.960804
1978.000000	0.960787
1976.000000	0.960805
1974.000000	0.960778
1972.000000	0.960706
1970.000000	0.960649
1968.000000	0.960614
1966.000000	0.960560
1964.000000	0.960565
1962.000000	0.960647
1960.000000	0.960681
1958.000000	0.960603
1956.000000	0.960549
1954.000000	0.960553
1952.000000	0.960559
1950.000000	0.960531
1948.000000	0.960552
1946.000000	0.960590
1944.000000	0.960557
1942.000000	0.960526
1940.000000	0.960567
1938.000000	0.960668
1936.000000	0.960701
1934.000000	0.960707
1932.000000	0.960722
1930.000000	0.960723
1928.000000	0.960775
1926.000000	0.960841
1924.000000	0.960862
1922.000000	0.960834
1920.000000	0.960871
1918.000000	0.960883
1916.000000	0.960944
1914.000000	0.961067
1912.000000	0.961146
1910.000000	0.961165
1908.000000	0.961172
1906.000000	0.961235
1904.000000	0.961298
1902.000000	0.961346
1900.000000	0.961366
1898.000000	0.961433
1896.000000	0.961547
1894.000000	0.961621
1892.000000	0.961665
1890.000000	0.961657
1888.000000	0.961701
1886.000000	0.961838
1884.000000	0.961934
1882.000000	0.962000
1880.000000	0.961991
1878.000000	0.962022
1876.000000	0.962122
1874.000000	0.962229
1872.000000	0.962294
1870.000000	0.962216
1868.000000	0.962185
1866.000000	0.962324
1864.000000	0.962398
1862.000000	0.962474
1860.000000	0.962572
1858.000000	0.962665
1856.000000	0.962737
1854.000000	0.962754
1852.000000	0.962794
1850.000000	0.962923
1848.000000	0.963024
1846.000000	0.963053
1844.000000	0.962944
1842.000000	0.963049
1840.000000	0.963271
1838.000000	0.963416
1836.000000	0.963562
1834.000000	0.963655
1832.000000	0.963726
1830.000000	0.963744
1828.000000	0.963842
1826.000000	0.963988
1824.000000	0.964056
1822.000000	0.964255
1820.000000	0.964440
1818.000000	0.964559
1816.000000	0.964680
1814.000000	0.964770
1812.000000	0.964817
1810.000000	0.964963
1808.000000	0.965151
1806.000000	0.965277
1804.000000	0.965397
1802.000000	0.965519
1800.000000	0.965620
1798.000000	0.965803
1796.000000	0.965978
1794.000000	0.966021
1792.000000	0.965958
1790.000000	0.966151
1788.000000	0.966451
1786.000000	0.966549
1784.000000	0.966587
1782.000000	0.966773
1780.000000	0.967017
1778.000000	0.967214
1776.000000	0.967360
1774.000000	0.967423
1772.000000	0.967307
1770.000000	0.967531
1768.000000	0.967891
1766.000000	0.968130
1764.000000	0.968311
1762.000000	0.968370
1760.000000	0.968572
1758.000000	0.968848
1756.000000	0.969023
1754.000000	0.969292
1752.000000	0.969303
1750.000000	0.969236
1748.000000	0.969515
1746.000000	0.969805
1744.000000	0.970020
1742.000000	0.970152
1740.000000	0.970158
1738.000000	0.970312
1736.000000	0.970553
1734.000000	0.970261
1732.000000	0.970358
1730.000000	0.970856
1728.000000	0.971110
1726.000000	0.971309
1724.000000	0.971404
1722.000000	0.971531
1720.000000	0.971657
1718.000000	0.971376
1716.000000	0.971117
1714.000000	0.971468
1712.000000	0.971876
1710.000000	0.972068
1708.000000	0.972138
1706.000000	0.972166
1704.000000	0.972224
1702.000000	0.972219
1700.000000	0.971762
1698.000000	0.971888
1696.000000	0.971947
1694.000000	0.972033
1692.000000	0.972570
1690.000000	0.972756
1688.000000	0.972913
1686.000000	0.972774
1684.000000	0.972202
1682.000000	0.972392
1680.000000	0.972904
1678.000000	0.973145
1676.000000	0.973052
1674.000000	0.972884
1672.000000	0.973125
1670.000000	0.973102
1668.000000	0.973002
1666.000000	0.973201
1664.000000	0.973322
1662.000000	0.973277
1660.000000	0.973422
1658.000000	0.973594
1656.000000	0.973685
1654.000000	0.973066
1652.000000	0.972388
1650.000000	0.973049
1648.000000	0.973484
1646.000000	0.973277
1644.000000	0.973396
1642.000000	0.973713
1640.000000	0.973839
1638.000000	0.973810
1636.000000	0.973422
1634.000000	0.973247
1632.000000	0.973587
1630.000000	0.973780
1628.000000	0.973801
1626.000000	0.973832
1624.000000	0.973757
1622.000000	0.973644
1620.000000	0.973767
1618.000000	0.973631
1616.000000	0.973323
1614.000000	0.973685
1612.000000	0.974092
1610.000000	0.974052
1608.000000	0.973930
1606.000000	0.973838
1604.000000	0.973801
1602.000000	0.973801
1600.000000	0.973842
1598.000000	0.973881
1596.000000	0.973928
1594.000000	0.973981
1592.000000	0.974019
1590.000000	0.974067
1588.000000	0.974071
1586.000000	0.974094
1584.000000	0.974122
1582.000000	0.974111
1580.000000	0.974180
1578.000000	0.974189
1576.000000	0.973840
1574.000000	0.973912
1572.000000	0.974359
1570.000000	0.974282
1568.000000	0.974232
1566.000000	0.974461
1564.000000	0.974573
1562.000000	0.974565
1560.000000	0.973978
1558.000000	0.973364
1556.000000	0.973810
1554.000000	0.974188
1552.000000	0.974414
1550.000000	0.974576
1548.000000	0.974682
1546.000000	0.974709
1544.000000	0.974588
1542.000000	0.974450
1540.000000	0.974023
1538.000000	0.973987
1536.000000	0.974654
1534.000000	0.974820
1532.000000	0.974729
1530.000000	0.974862
1528.000000	0.974899
1526.000000	0.974940
1524.000000	0.975001
1522.000000	0.974734
1520.000000	0.974657
1518.000000	0.974982
1516.000000	0.975038
1514.000000	0.975138
1512.000000	0.975165
1510.000000	0.975230
1508.000000	0.975080
1506.000000	0.974619
1504.000000	0.974971
1502.000000	0.975831
1500.000000	0.976295
1498.000000	0.976354
1496.000000	0.975814
1494.000000	0.975142
1492.000000	0.974636
1490.000000	0.974234
1488.000000	0.974203
1486.000000	0.974475
1484.000000	0.974830
1482.000000	0.975071
1480.000000	0.975173
1478.000000	0.975242
1476.000000	0.975266
1474.000000	0.975139
1472.000000	0.974925
1470.000000	0.975047
1468.000000	0.975319
1466.000000	0.975291
1464.000000	0.975182
1462.000000	0.975315
1460.000000	0.975410
1458.000000	0.975208
1456.000000	0.974910
1454.000000	0.975148
1452.000000	0.975246
1450.000000	0.974822
1448.000000	0.974449
1446.000000	0.974577
1444.000000	0.974844
1442.000000	0.974948
1440.000000	0.974985
1438.000000	0.974799
1436.000000	0.974518
1434.000000	0.974675
1432.000000	0.974787
1430.000000	0.974687
1428.000000	0.974641
1426.000000	0.974721
1424.000000	0.974709
1422.000000	0.974605
1420.000000	0.974371
1418.000000	0.974209
1416.000000	0.974389
1414.000000	0.974497
1412.000000	0.974475
1410.000000	0.974483
1408.000000	0.974509
1406.000000	0.974289
1404.000000	0.973970
1402.000000	0.973786
1400.000000	0.973638
1398.000000	0.973530
1396.000000	0.973493
1394.000000	0.973481
1392.000000	0.973615
1390.000000	0.973704
1388.000000	0.973560
1386.000000	0.973470
1384.000000	0.973449
1382.000000	0.973297
1380.000000	0.973175
1378.000000	0.973151
1376.000000	0.973074
1374.000000	0.972926
1372.000000	0.972941
1370.000000	0.972882
1368.000000	0.972764
1366.000000	0.972692
1364.000000	0.972567
1362.000000	0.972433
1360.000000	0.972348
1358.000000	0.972314
1356.000000	0.972324
1354.000000	0.972326
1352.000000	0.972272
1350.000000	0.972226
1348.000000	0.972062
1346.000000	0.971905
1344.000000	0.971863
1342.000000	0.971802
1340.000000	0.971702
1338.000000	0.971644
1336.000000	0.971514
1334.000000	0.971364
1332.000000	0.971320
1330.000000	0.971293
1328.000000	0.971276
1326.000000	0.971302
1324.000000	0.971282
1322.000000	0.971161
1320.000000	0.971137
1318.000000	0.971037
1316.000000	0.970873
1314.000000	0.970799
1312.000000	0.970760
1310.000000	0.970699
1308.000000	0.970599
1306.000000	0.970537
1304.000000	0.970414
1302.000000	0.970240
1300.000000	0.970141
1298.000000	0.970143
1296.000000	0.970205
1294.000000	0.970124
1292.000000	0.970072
1290.000000	0.970044
1288.000000	0.969946
1286.000000	0.969973
1284.000000	0.969974
1282.000000	0.969900
1280.000000	0.969808
1278.000000	0.969717
1276.000000	0.969712
1274.000000	0.969882
1272.000000	0.970197
1270.000000	0.970653
1268.000000	0.971432
1266.000000	0.972417
1264.000000	0.973420
1262.000000	0.974146
1260.000000	0.974165
1258.000000	0.973476
1256.000000	0.972486
1254.000000	0.971644
1252.000000	0.971010
1250.000000	0.970576
1248.000000	0.970445
1246.000000	0.970425
1244.000000	0.970435
1242.000000	0.970442
1240.000000	0.970438
1238.000000	0.970436
1236.000000	0.970347
1234.000000	0.970329
1232.000000	0.970507
1230.000000	0.970617
1228.000000	0.970543
1226.000000	0.970511
1224.000000	0.970649
1222.000000	0.970696
1220.000000	0.970622
1218.000000	0.970593
1216.000000	0.970563
1214.000000	0.970662
1212.000000	0.970698
1210.000000	0.970590
1208.000000	0.970626
1206.000000	0.970650
1204.000000	0.970640
1202.000000	0.970824
1200.000000	0.970994
1198.000000	0.971076
1196.000000	0.971163
1194.000000	0.971269
1192.000000	0.971475
1190.000000	0.971682
1188.000000	0.971787
1186.000000	0.971855
1184.000000	0.972118
1182.000000	0.972428
1180.000000	0.972432
1178.000000	0.972469
1176.000000	0.972778
1174.000000	0.972905
1172.000000	0.972830
1170.000000	0.972968
1168.000000	0.973145
1166.000000	0.973322
1164.000000	0.973492
1162.000000	0.973438
1160.000000	0.973573
1158.000000	0.973879
1156.000000	0.974095
1154.000000	0.974350
1152.000000	0.974345
1150.000000	0.974252
1148.000000	0.974448
1146.000000	0.974587
1144.000000	0.974529
1142.000000	0.974556
1140.000000	0.974617
1138.000000	0.974717
1136.000000	0.974722
1134.000000	0.974544
1132.000000	0.974567
1130.000000	0.974822
1128.000000	0.974978
1126.000000	0.975235
1124.000000	0.975280
1122.000000	0.975322
1120.000000	0.975363
1118.000000	0.975356
1116.000000	0.975693
1114.000000	0.976005
1112.000000	0.976122
1110.000000	0.976200
1108.000000	0.976561
1106.000000	0.976795
1104.000000	0.976693
1102.000000	0.976993
1100.000000	0.977446
1098.000000	0.977583
1096.000000	0.977732
1094.000000	0.978013
1092.000000	0.978203
1090.000000	0.977997
1088.000000	0.977475
1086.000000	0.977279
1084.000000	0.977517
1082.000000	0.977274
1080.000000	0.976705
1078.000000	0.976143
1076.000000	0.975842
1074.000000	0.975546
1072.000000	0.974947
1070.000000	0.974252
1068.000000	0.973745
1066.000000	0.972925
1064.000000	0.972250
1062.000000	0.972019
1060.000000	0.971452
1058.000000	0.970667
1056.000000	0.970224
1054.000000	0.969928
1052.000000	0.969530
1050.000000	0.968541
1048.000000	0.967542
1046.000000	0.967204
1044.000000	0.966940
1042.000000	0.966744
1040.000000	0.966416
1038.000000	0.965620
1036.000000	0.964967
1034.000000	0.964610
1032.000000	0.964436
1030.000000	0.964262
1028.000000	0.963959
1026.000000	0.963462
1024.000000	0.963287
1022.000000	0.963414
1020.000000	0.963216
1018.000000	0.962853
1016.000000	0.962504
1014.000000	0.962226
1012.000000	0.961601
1010.000000	0.960991
1008.000000	0.960304
1006.000000	0.959361
1004.000000	0.959118
1002.000000	0.959441
1000.000000	0.959651
