PE IR       SUBTECH     SPECTRUM    ASCII       PEDS        4.00        
   -1
TE109A_075_150K.ASC
20/04/21
20:55:05.00
20/04/21
20:55:05.00
Administrator
TE109A, Tuesday, April 21 2020, 075.
1000.000000
#HDR
-1
-1
#GR
cm-1
A
1.0
0.0
6000.000000
-2.000000
2501
8
0.977170
0.899757
#DATA
6000.000000	0.904254
5998.000000	0.904384
5996.000000	0.904490
5994.000000	0.904622
5992.000000	0.904508
5990.000000	0.904518
5988.000000	0.904662
5986.000000	0.904732
5984.000000	0.904505
5982.000000	0.904304
5980.000000	0.904183
5978.000000	0.904067
5976.000000	0.904114
5974.000000	0.904397
5972.000000	0.905131
5970.000000	0.905492
5968.000000	0.905348
5966.000000	0.905034
5964.000000	0.905073
5962.000000	0.905233
5960.000000	0.905341
5958.000000	0.905147
5956.000000	0.905203
5954.000000	0.905148
5952.000000	0.905082
5950.000000	0.905040
5948.000000	0.904713
5946.000000	0.904982
5944.000000	0.904957
5942.000000	0.905100
5940.000000	0.905004
5938.000000	0.904661
5936.000000	0.904478
5934.000000	0.904277
5932.000000	0.904579
5930.000000	0.904838
5928.000000	0.905062
5926.000000	0.905365
5924.000000	0.905425
5922.000000	0.905322
5920.000000	0.904792
5918.000000	0.904427
5916.000000	0.904819
5914.000000	0.905194
5912.000000	0.905395
5910.000000	0.905291
5908.000000	0.904879
5906.000000	0.904768
5904.000000	0.904722
5902.000000	0.904908
5900.000000	0.905134
5898.000000	0.905001
5896.000000	0.904879
5894.000000	0.904825
5892.000000	0.904831
5890.000000	0.905197
5888.000000	0.905182
5886.000000	0.904948
5884.000000	0.904849
5882.000000	0.905045
5880.000000	0.905385
5878.000000	0.905462
5876.000000	0.905165
5874.000000	0.905050
5872.000000	0.905092
5870.000000	0.905112
5868.000000	0.905225
5866.000000	0.905146
5864.000000	0.905069
5862.000000	0.905196
5860.000000	0.905162
5858.000000	0.904916
5856.000000	0.904595
5854.000000	0.904514
5852.000000	0.904842
5850.000000	0.905141
5848.000000	0.905145
5846.000000	0.905150
5844.000000	0.905136
5842.000000	0.905019
5840.000000	0.904777
5838.000000	0.904654
5836.000000	0.904942
5834.000000	0.905261
5832.000000	0.905481
5830.000000	0.905496
5828.000000	0.905492
5826.000000	0.905557
5824.000000	0.905627
5822.000000	0.905683
5820.000000	0.905594
5818.000000	0.905444
5816.000000	0.905355
5814.000000	0.905468
5812.000000	0.905556
5810.000000	0.905604
5808.000000	0.905790
5806.000000	0.906023
5804.000000	0.906185
5802.000000	0.906086
5800.000000	0.905681
5798.000000	0.905431
5796.000000	0.905508
5794.000000	0.905785
5792.000000	0.905989
5790.000000	0.905959
5788.000000	0.906064
5786.000000	0.906108
5784.000000	0.905927
5782.000000	0.905695
5780.000000	0.905692
5778.000000	0.905953
5776.000000	0.905946
5774.000000	0.905844
5772.000000	0.905729
5770.000000	0.906042
5768.000000	0.906279
5766.000000	0.906325
5764.000000	0.906217
5762.000000	0.906206
5760.000000	0.906318
5758.000000	0.906149
5756.000000	0.905944
5754.000000	0.906019
5752.000000	0.906203
5750.000000	0.906195
5748.000000	0.905881
5746.000000	0.905761
5744.000000	0.906039
5742.000000	0.906507
5740.000000	0.906557
5738.000000	0.906016
5736.000000	0.905429
5734.000000	0.905317
5732.000000	0.905542
5730.000000	0.905741
5728.000000	0.905777
5726.000000	0.905969
5724.000000	0.906302
5722.000000	0.906682
5720.000000	0.906779
5718.000000	0.906533
5716.000000	0.906276
5714.000000	0.906379
5712.000000	0.906635
5710.000000	0.906822
5708.000000	0.906817
5706.000000	0.906830
5704.000000	0.906900
5702.000000	0.906959
5700.000000	0.906837
5698.000000	0.906696
5696.000000	0.906645
5694.000000	0.906646
5692.000000	0.906793
5690.000000	0.906795
5688.000000	0.906775
5686.000000	0.906608
5684.000000	0.906416
5682.000000	0.906181
5680.000000	0.906130
5678.000000	0.906350
5676.000000	0.906599
5674.000000	0.906781
5672.000000	0.906782
5670.000000	0.906840
5668.000000	0.906907
5666.000000	0.906955
5664.000000	0.906901
5662.000000	0.906592
5660.000000	0.906297
5658.000000	0.906506
5656.000000	0.906885
5654.000000	0.906884
5652.000000	0.906662
5650.000000	0.906516
5648.000000	0.906696
5646.000000	0.906822
5644.000000	0.906923
5642.000000	0.907076
5640.000000	0.907075
5638.000000	0.907049
5636.000000	0.907110
5634.000000	0.907230
5632.000000	0.907299
5630.000000	0.907194
5628.000000	0.907169
5626.000000	0.907149
5624.000000	0.907068
5622.000000	0.906975
5620.000000	0.907042
5618.000000	0.907127
5616.000000	0.907126
5614.000000	0.907166
5612.000000	0.907311
5610.000000	0.907442
5608.000000	0.907465
5606.000000	0.907303
5604.000000	0.907075
5602.000000	0.906993
5600.000000	0.907200
5598.000000	0.907498
5596.000000	0.907461
5594.000000	0.907389
5592.000000	0.907411
5590.000000	0.907386
5588.000000	0.907297
5586.000000	0.907410
5584.000000	0.907621
5582.000000	0.907683
5580.000000	0.907537
5578.000000	0.907658
5576.000000	0.907831
5574.000000	0.907842
5572.000000	0.907596
5570.000000	0.907480
5568.000000	0.907513
5566.000000	0.907488
5564.000000	0.907520
5562.000000	0.907453
5560.000000	0.907300
5558.000000	0.907195
5556.000000	0.907022
5554.000000	0.906999
5552.000000	0.907179
5550.000000	0.907428
5548.000000	0.907654
5546.000000	0.907701
5544.000000	0.907610
5542.000000	0.907481
5540.000000	0.907363
5538.000000	0.907227
5536.000000	0.907106
5534.000000	0.906994
5532.000000	0.907094
5530.000000	0.907370
5528.000000	0.907467
5526.000000	0.907511
5524.000000	0.907537
5522.000000	0.907520
5520.000000	0.907455
5518.000000	0.907278
5516.000000	0.907166
5514.000000	0.907299
5512.000000	0.907570
5510.000000	0.907856
5508.000000	0.907905
5506.000000	0.907921
5504.000000	0.908045
5502.000000	0.908072
5500.000000	0.907893
5498.000000	0.907696
5496.000000	0.907743
5494.000000	0.907869
5492.000000	0.907839
5490.000000	0.907645
5488.000000	0.907489
5486.000000	0.907571
5484.000000	0.907770
5482.000000	0.907880
5480.000000	0.907890
5478.000000	0.908049
5476.000000	0.908115
5474.000000	0.907867
5472.000000	0.907691
5470.000000	0.907806
5468.000000	0.907869
5466.000000	0.907780
5464.000000	0.907639
5462.000000	0.907776
5460.000000	0.907915
5458.000000	0.907885
5456.000000	0.907919
5454.000000	0.907910
5452.000000	0.907928
5450.000000	0.907989
5448.000000	0.908051
5446.000000	0.908129
5444.000000	0.908005
5442.000000	0.907900
5440.000000	0.907846
5438.000000	0.907663
5436.000000	0.907503
5434.000000	0.907588
5432.000000	0.907801
5430.000000	0.907891
5428.000000	0.907782
5426.000000	0.907764
5424.000000	0.907982
5422.000000	0.908179
5420.000000	0.908221
5418.000000	0.908212
5416.000000	0.908199
5414.000000	0.908126
5412.000000	0.907982
5410.000000	0.908011
5408.000000	0.908168
5406.000000	0.908294
5404.000000	0.908246
5402.000000	0.908080
5400.000000	0.907875
5398.000000	0.907864
5396.000000	0.907952
5394.000000	0.908063
5392.000000	0.908155
5390.000000	0.908231
5388.000000	0.908344
5386.000000	0.908490
5384.000000	0.908577
5382.000000	0.908567
5380.000000	0.908553
5378.000000	0.908569
5376.000000	0.908547
5374.000000	0.908557
5372.000000	0.908561
5370.000000	0.908437
5368.000000	0.908296
5366.000000	0.908315
5364.000000	0.908330
5362.000000	0.908099
5360.000000	0.907988
5358.000000	0.908227
5356.000000	0.908542
5354.000000	0.908478
5352.000000	0.908265
5350.000000	0.908300
5348.000000	0.908430
5346.000000	0.908422
5344.000000	0.908423
5342.000000	0.908515
5340.000000	0.908545
5338.000000	0.908400
5336.000000	0.908380
5334.000000	0.908534
5332.000000	0.908691
5330.000000	0.908737
5328.000000	0.908771
5326.000000	0.908906
5324.000000	0.908894
5322.000000	0.908859
5320.000000	0.908845
5318.000000	0.908890
5316.000000	0.908926
5314.000000	0.909053
5312.000000	0.909324
5310.000000	0.909465
5308.000000	0.909366
5306.000000	0.909114
5304.000000	0.909077
5302.000000	0.909279
5300.000000	0.909488
5298.000000	0.909571
5296.000000	0.909573
5294.000000	0.909631
5292.000000	0.909518
5290.000000	0.909342
5288.000000	0.909290
5286.000000	0.909466
5284.000000	0.909763
5282.000000	0.909818
5280.000000	0.909609
5278.000000	0.909508
5276.000000	0.909565
5274.000000	0.909749
5272.000000	0.909893
5270.000000	0.910108
5268.000000	0.910266
5266.000000	0.910274
5264.000000	0.910305
5262.000000	0.910297
5260.000000	0.910239
5258.000000	0.910231
5256.000000	0.910397
5254.000000	0.910601
5252.000000	0.910731
5250.000000	0.910690
5248.000000	0.910523
5246.000000	0.910415
5244.000000	0.910530
5242.000000	0.910802
5240.000000	0.910900
5238.000000	0.910896
5236.000000	0.910971
5234.000000	0.911055
5232.000000	0.911075
5230.000000	0.911166
5228.000000	0.911474
5226.000000	0.911833
5224.000000	0.911888
5222.000000	0.911920
5220.000000	0.911991
5218.000000	0.912167
5216.000000	0.912324
5214.000000	0.912450
5212.000000	0.912583
5210.000000	0.912664
5208.000000	0.912786
5206.000000	0.912897
5204.000000	0.913018
5202.000000	0.913100
5200.000000	0.913042
5198.000000	0.912995
5196.000000	0.913074
5194.000000	0.913177
5192.000000	0.913248
5190.000000	0.913379
5188.000000	0.913505
5186.000000	0.913664
5184.000000	0.913888
5182.000000	0.914160
5180.000000	0.914393
5178.000000	0.914621
5176.000000	0.914658
5174.000000	0.914513
5172.000000	0.914369
5170.000000	0.914328
5168.000000	0.914335
5166.000000	0.914589
5164.000000	0.914938
5162.000000	0.915119
5160.000000	0.915206
5158.000000	0.915252
5156.000000	0.915253
5154.000000	0.915262
5152.000000	0.915496
5150.000000	0.915770
5148.000000	0.915785
5146.000000	0.915740
5144.000000	0.915815
5142.000000	0.915909
5140.000000	0.915926
5138.000000	0.915975
5136.000000	0.916233
5134.000000	0.916472
5132.000000	0.916649
5130.000000	0.916678
5128.000000	0.916755
5126.000000	0.916948
5124.000000	0.917209
5122.000000	0.917287
5120.000000	0.917146
5118.000000	0.917138
5116.000000	0.917355
5114.000000	0.917662
5112.000000	0.917843
5110.000000	0.917907
5108.000000	0.917915
5106.000000	0.917954
5104.000000	0.918194
5102.000000	0.918465
5100.000000	0.918541
5098.000000	0.918362
5096.000000	0.918323
5094.000000	0.918359
5092.000000	0.918369
5090.000000	0.918326
5088.000000	0.918508
5086.000000	0.918737
5084.000000	0.918855
5082.000000	0.918925
5080.000000	0.918939
5078.000000	0.918997
5076.000000	0.919002
5074.000000	0.919028
5072.000000	0.919034
5070.000000	0.919126
5068.000000	0.919165
5066.000000	0.919121
5064.000000	0.919155
5062.000000	0.919243
5060.000000	0.919313
5058.000000	0.919384
5056.000000	0.919448
5054.000000	0.919507
5052.000000	0.919582
5050.000000	0.919788
5048.000000	0.919972
5046.000000	0.920118
5044.000000	0.920182
5042.000000	0.920179
5040.000000	0.920143
5038.000000	0.920125
5036.000000	0.920082
5034.000000	0.919979
5032.000000	0.919915
5030.000000	0.919977
5028.000000	0.920127
5026.000000	0.920343
5024.000000	0.920501
5022.000000	0.920560
5020.000000	0.920551
5018.000000	0.920621
5016.000000	0.920649
5014.000000	0.920688
5012.000000	0.920757
5010.000000	0.920853
5008.000000	0.920726
5006.000000	0.920452
5004.000000	0.920369
5002.000000	0.920551
5000.000000	0.920789
4998.000000	0.920836
4996.000000	0.920751
4994.000000	0.920638
4992.000000	0.920631
4990.000000	0.920758
4988.000000	0.920877
4986.000000	0.920784
4984.000000	0.920600
4982.000000	0.920484
4980.000000	0.920598
4978.000000	0.920716
4976.000000	0.920708
4974.000000	0.920664
4972.000000	0.920700
4970.000000	0.920660
4968.000000	0.920482
4966.000000	0.920427
4964.000000	0.920553
4962.000000	0.920613
4960.000000	0.920553
4958.000000	0.920456
4956.000000	0.920474
4954.000000	0.920541
4952.000000	0.920692
4950.000000	0.920864
4948.000000	0.920860
4946.000000	0.920694
4944.000000	0.920558
4942.000000	0.920553
4940.000000	0.920592
4938.000000	0.920573
4936.000000	0.920456
4934.000000	0.920291
4932.000000	0.920365
4930.000000	0.920554
4928.000000	0.920584
4926.000000	0.920484
4924.000000	0.920432
4922.000000	0.920479
4920.000000	0.920488
4918.000000	0.920458
4916.000000	0.920402
4914.000000	0.920402
4912.000000	0.920488
4910.000000	0.920510
4908.000000	0.920524
4906.000000	0.920548
4904.000000	0.920482
4902.000000	0.920329
4900.000000	0.920315
4898.000000	0.920360
4896.000000	0.920212
4894.000000	0.920133
4892.000000	0.920204
4890.000000	0.920299
4888.000000	0.920310
4886.000000	0.920207
4884.000000	0.920062
4882.000000	0.919964
4880.000000	0.919894
4878.000000	0.919826
4876.000000	0.919843
4874.000000	0.919840
4872.000000	0.919792
4870.000000	0.919751
4868.000000	0.919625
4866.000000	0.919457
4864.000000	0.919562
4862.000000	0.919725
4860.000000	0.919650
4858.000000	0.919462
4856.000000	0.919442
4854.000000	0.919487
4852.000000	0.919420
4850.000000	0.919434
4848.000000	0.919478
4846.000000	0.919402
4844.000000	0.919196
4842.000000	0.919059
4840.000000	0.918961
4838.000000	0.918911
4836.000000	0.918849
4834.000000	0.918824
4832.000000	0.918835
4830.000000	0.918780
4828.000000	0.918650
4826.000000	0.918570
4824.000000	0.918508
4822.000000	0.918378
4820.000000	0.918341
4818.000000	0.918389
4816.000000	0.918370
4814.000000	0.918267
4812.000000	0.918177
4810.000000	0.918150
4808.000000	0.918053
4806.000000	0.917777
4804.000000	0.917454
4802.000000	0.917392
4800.000000	0.917479
4798.000000	0.917384
4796.000000	0.917176
4794.000000	0.917094
4792.000000	0.917053
4790.000000	0.916911
4788.000000	0.916747
4786.000000	0.916692
4784.000000	0.916641
4782.000000	0.916520
4780.000000	0.916420
4778.000000	0.916423
4776.000000	0.916354
4774.000000	0.916196
4772.000000	0.916051
4770.000000	0.915956
4768.000000	0.915858
4766.000000	0.915744
4764.000000	0.915604
4762.000000	0.915466
4760.000000	0.915306
4758.000000	0.915162
4756.000000	0.915091
4754.000000	0.915048
4752.000000	0.915033
4750.000000	0.914955
4748.000000	0.914751
4746.000000	0.914565
4744.000000	0.914502
4742.000000	0.914487
4740.000000	0.914495
4738.000000	0.914479
4736.000000	0.914395
4734.000000	0.914332
4732.000000	0.914234
4730.000000	0.914099
4728.000000	0.913999
4726.000000	0.913845
4724.000000	0.913629
4722.000000	0.913507
4720.000000	0.913446
4718.000000	0.913326
4716.000000	0.913224
4714.000000	0.913156
4712.000000	0.913076
4710.000000	0.913017
4708.000000	0.913001
4706.000000	0.912918
4704.000000	0.912749
4702.000000	0.912634
4700.000000	0.912599
4698.000000	0.912586
4696.000000	0.912514
4694.000000	0.912392
4692.000000	0.912322
4690.000000	0.912293
4688.000000	0.912244
4686.000000	0.912165
4684.000000	0.912115
4682.000000	0.911988
4680.000000	0.911760
4678.000000	0.911584
4676.000000	0.911569
4674.000000	0.911582
4672.000000	0.911458
4670.000000	0.911280
4668.000000	0.911134
4666.000000	0.911123
4664.000000	0.911178
4662.000000	0.911174
4660.000000	0.911103
4658.000000	0.911045
4656.000000	0.910974
4654.000000	0.910959
4652.000000	0.910999
4650.000000	0.910917
4648.000000	0.910738
4646.000000	0.910714
4644.000000	0.910728
4642.000000	0.910630
4640.000000	0.910592
4638.000000	0.910707
4636.000000	0.910685
4634.000000	0.910543
4632.000000	0.910513
4630.000000	0.910603
4628.000000	0.910590
4626.000000	0.910489
4624.000000	0.910335
4622.000000	0.910156
4620.000000	0.910043
4618.000000	0.910103
4616.000000	0.910232
4614.000000	0.910210
4612.000000	0.910084
4610.000000	0.910021
4608.000000	0.910008
4606.000000	0.909924
4604.000000	0.909905
4602.000000	0.909970
4600.000000	0.909960
4598.000000	0.909917
4596.000000	0.909884
4594.000000	0.909764
4592.000000	0.909630
4590.000000	0.909589
4588.000000	0.909579
4586.000000	0.909583
4584.000000	0.909573
4582.000000	0.909526
4580.000000	0.909502
4578.000000	0.909482
4576.000000	0.909459
4574.000000	0.909466
4572.000000	0.909458
4570.000000	0.909396
4568.000000	0.909332
4566.000000	0.909285
4564.000000	0.909226
4562.000000	0.909142
4560.000000	0.909067
4558.000000	0.909032
4556.000000	0.909109
4554.000000	0.909275
4552.000000	0.909333
4550.000000	0.909266
4548.000000	0.909241
4546.000000	0.909251
4544.000000	0.909225
4542.000000	0.909159
4540.000000	0.909106
4538.000000	0.909145
4536.000000	0.909147
4534.000000	0.909039
4532.000000	0.909013
4530.000000	0.909080
4528.000000	0.909041
4526.000000	0.908991
4524.000000	0.909009
4522.000000	0.909034
4520.000000	0.909043
4518.000000	0.908962
4516.000000	0.908803
4514.000000	0.908724
4512.000000	0.908744
4510.000000	0.908773
4508.000000	0.908861
4506.000000	0.908879
4504.000000	0.908840
4502.000000	0.908826
4500.000000	0.908797
4498.000000	0.908672
4496.000000	0.908641
4494.000000	0.908666
4492.000000	0.908627
4490.000000	0.908539
4488.000000	0.908517
4486.000000	0.908570
4484.000000	0.908635
4482.000000	0.908556
4480.000000	0.908362
4478.000000	0.908248
4476.000000	0.908308
4474.000000	0.908462
4472.000000	0.908514
4470.000000	0.908375
4468.000000	0.908230
4466.000000	0.908250
4464.000000	0.908337
4462.000000	0.908347
4460.000000	0.908322
4458.000000	0.908351
4456.000000	0.908374
4454.000000	0.908352
4452.000000	0.908358
4450.000000	0.908396
4448.000000	0.908362
4446.000000	0.908284
4444.000000	0.908213
4442.000000	0.908204
4440.000000	0.908252
4438.000000	0.908379
4436.000000	0.908459
4434.000000	0.908429
4432.000000	0.908400
4430.000000	0.908457
4428.000000	0.908490
4426.000000	0.908468
4424.000000	0.908437
4422.000000	0.908472
4420.000000	0.908536
4418.000000	0.908498
4416.000000	0.908406
4414.000000	0.908401
4412.000000	0.908396
4410.000000	0.908348
4408.000000	0.908321
4406.000000	0.908388
4404.000000	0.908498
4402.000000	0.908549
4400.000000	0.908457
4398.000000	0.908292
4396.000000	0.908246
4394.000000	0.908393
4392.000000	0.908494
4390.000000	0.908397
4388.000000	0.908297
4386.000000	0.908314
4384.000000	0.908395
4382.000000	0.908447
4380.000000	0.908408
4378.000000	0.908400
4376.000000	0.908508
4374.000000	0.908573
4372.000000	0.908551
4370.000000	0.908597
4368.000000	0.908645
4366.000000	0.908620
4364.000000	0.908680
4362.000000	0.908803
4360.000000	0.908808
4358.000000	0.908708
4356.000000	0.908636
4354.000000	0.908668
4352.000000	0.908752
4350.000000	0.908838
4348.000000	0.908936
4346.000000	0.908931
4344.000000	0.908918
4342.000000	0.909010
4340.000000	0.909035
4338.000000	0.908988
4336.000000	0.908994
4334.000000	0.908999
4332.000000	0.909008
4330.000000	0.909061
4328.000000	0.909045
4326.000000	0.908998
4324.000000	0.909084
4322.000000	0.909166
4320.000000	0.909107
4318.000000	0.909152
4316.000000	0.909348
4314.000000	0.909454
4312.000000	0.909393
4310.000000	0.909286
4308.000000	0.909286
4306.000000	0.909376
4304.000000	0.909458
4302.000000	0.909514
4300.000000	0.909476
4298.000000	0.909358
4296.000000	0.909337
4294.000000	0.909395
4292.000000	0.909431
4290.000000	0.909494
4288.000000	0.909587
4286.000000	0.909624
4284.000000	0.909628
4282.000000	0.909642
4280.000000	0.909614
4278.000000	0.909611
4276.000000	0.909693
4274.000000	0.909777
4272.000000	0.909796
4270.000000	0.909830
4268.000000	0.909886
4266.000000	0.909883
4264.000000	0.909853
4262.000000	0.909882
4260.000000	0.909912
4258.000000	0.909910
4256.000000	0.909964
4254.000000	0.910007
4252.000000	0.910007
4250.000000	0.910063
4248.000000	0.910137
4246.000000	0.910135
4244.000000	0.910140
4242.000000	0.910202
4240.000000	0.910281
4238.000000	0.910257
4236.000000	0.910188
4234.000000	0.910203
4232.000000	0.910251
4230.000000	0.910298
4228.000000	0.910368
4226.000000	0.910425
4224.000000	0.910434
4222.000000	0.910383
4220.000000	0.910332
4218.000000	0.910345
4216.000000	0.910348
4214.000000	0.910341
4212.000000	0.910414
4210.000000	0.910510
4208.000000	0.910517
4206.000000	0.910423
4204.000000	0.910315
4202.000000	0.910333
4200.000000	0.910402
4198.000000	0.910403
4196.000000	0.910375
4194.000000	0.910354
4192.000000	0.910334
4190.000000	0.910318
4188.000000	0.910284
4186.000000	0.910252
4184.000000	0.910259
4182.000000	0.910283
4180.000000	0.910233
4178.000000	0.910127
4176.000000	0.910053
4174.000000	0.910092
4172.000000	0.910240
4170.000000	0.910325
4168.000000	0.910209
4166.000000	0.910050
4164.000000	0.910014
4162.000000	0.910094
4160.000000	0.910188
4158.000000	0.910190
4156.000000	0.910119
4154.000000	0.910084
4152.000000	0.910162
4150.000000	0.910294
4148.000000	0.910330
4146.000000	0.910309
4144.000000	0.910343
4142.000000	0.910322
4140.000000	0.910207
4138.000000	0.910114
4136.000000	0.910067
4134.000000	0.910064
4132.000000	0.910098
4130.000000	0.910092
4128.000000	0.910062
4126.000000	0.910089
4124.000000	0.910120
4122.000000	0.910156
4120.000000	0.910224
4118.000000	0.910203
4116.000000	0.910118
4114.000000	0.910169
4112.000000	0.910264
4110.000000	0.910204
4108.000000	0.910049
4106.000000	0.909973
4104.000000	0.909984
4102.000000	0.910009
4100.000000	0.909980
4098.000000	0.909889
4096.000000	0.909815
4094.000000	0.909814
4092.000000	0.909876
4090.000000	0.909890
4088.000000	0.909819
4086.000000	0.909786
4084.000000	0.909776
4082.000000	0.909805
4080.000000	0.909898
4078.000000	0.909940
4076.000000	0.909915
4074.000000	0.909832
4072.000000	0.909780
4070.000000	0.909815
4068.000000	0.909846
4066.000000	0.909874
4064.000000	0.909844
4062.000000	0.909793
4060.000000	0.909765
4058.000000	0.909681
4056.000000	0.909651
4054.000000	0.909734
4052.000000	0.909794
4050.000000	0.909766
4048.000000	0.909766
4046.000000	0.909843
4044.000000	0.909784
4042.000000	0.909606
4040.000000	0.909573
4038.000000	0.909643
4036.000000	0.909645
4034.000000	0.909578
4032.000000	0.909490
4030.000000	0.909436
4028.000000	0.909439
4026.000000	0.909428
4024.000000	0.909419
4022.000000	0.909498
4020.000000	0.909540
4018.000000	0.909508
4016.000000	0.909491
4014.000000	0.909401
4012.000000	0.909238
4010.000000	0.909140
4008.000000	0.909153
4006.000000	0.909198
4004.000000	0.909210
4002.000000	0.909262
4000.000000	0.909240
3998.000000	0.909060
3996.000000	0.908995
3994.000000	0.909051
3992.000000	0.908997
3990.000000	0.908869
3988.000000	0.908884
3986.000000	0.909017
3984.000000	0.909018
3982.000000	0.908915
3980.000000	0.908892
3978.000000	0.908888
3976.000000	0.908834
3974.000000	0.908837
3972.000000	0.908919
3970.000000	0.908888
3968.000000	0.908681
3966.000000	0.908560
3964.000000	0.908617
3962.000000	0.908602
3960.000000	0.908480
3958.000000	0.908387
3956.000000	0.908380
3954.000000	0.908394
3952.000000	0.908310
3950.000000	0.908222
3948.000000	0.908223
3946.000000	0.908234
3944.000000	0.908165
3942.000000	0.908037
3940.000000	0.907966
3938.000000	0.907954
3936.000000	0.907934
3934.000000	0.907832
3932.000000	0.907668
3930.000000	0.907547
3928.000000	0.907461
3926.000000	0.907362
3924.000000	0.907276
3922.000000	0.907284
3920.000000	0.907316
3918.000000	0.907217
3916.000000	0.907042
3914.000000	0.906898
3912.000000	0.906822
3910.000000	0.906825
3908.000000	0.906793
3906.000000	0.906596
3904.000000	0.906310
3902.000000	0.906099
3900.000000	0.905972
3898.000000	0.905934
3896.000000	0.906052
3894.000000	0.906100
3892.000000	0.905900
3890.000000	0.905772
3888.000000	0.905811
3886.000000	0.905685
3884.000000	0.905487
3882.000000	0.905434
3880.000000	0.905379
3878.000000	0.905392
3876.000000	0.905483
3874.000000	0.905384
3872.000000	0.905093
3870.000000	0.904717
3868.000000	0.904549
3866.000000	0.904601
3864.000000	0.904608
3862.000000	0.904644
3860.000000	0.904736
3858.000000	0.904809
3856.000000	0.904565
3854.000000	0.903727
3852.000000	0.903139
3850.000000	0.903517
3848.000000	0.904098
3846.000000	0.904256
3844.000000	0.904100
3842.000000	0.903795
3840.000000	0.903471
3838.000000	0.903139
3836.000000	0.903051
3834.000000	0.903290
3832.000000	0.903394
3830.000000	0.903320
3828.000000	0.903302
3826.000000	0.903233
3824.000000	0.903075
3822.000000	0.902775
3820.000000	0.902571
3818.000000	0.902537
3816.000000	0.902283
3814.000000	0.902196
3812.000000	0.902420
3810.000000	0.902475
3808.000000	0.902313
3806.000000	0.902151
3804.000000	0.902118
3802.000000	0.901881
3800.000000	0.901537
3798.000000	0.901569
3796.000000	0.901753
3794.000000	0.901786
3792.000000	0.901783
3790.000000	0.901842
3788.000000	0.901849
3786.000000	0.901730
3784.000000	0.901649
3782.000000	0.901593
3780.000000	0.901407
3778.000000	0.901288
3776.000000	0.901335
3774.000000	0.901312
3772.000000	0.901171
3770.000000	0.900973
3768.000000	0.900870
3766.000000	0.900849
3764.000000	0.900819
3762.000000	0.900860
3760.000000	0.900867
3758.000000	0.900795
3756.000000	0.900808
3754.000000	0.900748
3752.000000	0.900331
3750.000000	0.899921
3748.000000	0.900006
3746.000000	0.900084
3744.000000	0.899757
3742.000000	0.899931
3740.000000	0.900559
3738.000000	0.900698
3736.000000	0.900457
3734.000000	0.900330
3732.000000	0.900415
3730.000000	0.900704
3728.000000	0.901023
3726.000000	0.901154
3724.000000	0.901260
3722.000000	0.901343
3720.000000	0.901367
3718.000000	0.901527
3716.000000	0.901813
3714.000000	0.901866
3712.000000	0.901642
3710.000000	0.901636
3708.000000	0.901993
3706.000000	0.902440
3704.000000	0.902750
3702.000000	0.902917
3700.000000	0.903125
3698.000000	0.903414
3696.000000	0.903758
3694.000000	0.904104
3692.000000	0.904258
3690.000000	0.904159
3688.000000	0.904108
3686.000000	0.904522
3684.000000	0.905241
3682.000000	0.905816
3680.000000	0.906275
3678.000000	0.906629
3676.000000	0.906602
3674.000000	0.906768
3672.000000	0.907415
3670.000000	0.907832
3668.000000	0.908343
3666.000000	0.909192
3664.000000	0.909934
3662.000000	0.910538
3660.000000	0.911094
3658.000000	0.911539
3656.000000	0.911944
3654.000000	0.912614
3652.000000	0.913317
3650.000000	0.913598
3648.000000	0.913927
3646.000000	0.914811
3644.000000	0.915868
3642.000000	0.916723
3640.000000	0.917431
3638.000000	0.918077
3636.000000	0.918747
3634.000000	0.919457
3632.000000	0.920153
3630.000000	0.920575
3628.000000	0.920953
3626.000000	0.921895
3624.000000	0.923031
3622.000000	0.923823
3620.000000	0.924330
3618.000000	0.924932
3616.000000	0.925811
3614.000000	0.926614
3612.000000	0.927263
3610.000000	0.927953
3608.000000	0.928714
3606.000000	0.929580
3604.000000	0.930397
3602.000000	0.931082
3600.000000	0.931798
3598.000000	0.932540
3596.000000	0.933135
3594.000000	0.933713
3592.000000	0.934379
3590.000000	0.934977
3588.000000	0.935435
3586.000000	0.935884
3584.000000	0.936430
3582.000000	0.936978
3580.000000	0.937550
3578.000000	0.938113
3576.000000	0.938578
3574.000000	0.938956
3572.000000	0.939363
3570.000000	0.939796
3568.000000	0.940018
3566.000000	0.940119
3564.000000	0.940436
3562.000000	0.940926
3560.000000	0.941358
3558.000000	0.941630
3556.000000	0.941814
3554.000000	0.941996
3552.000000	0.942232
3550.000000	0.942532
3548.000000	0.942723
3546.000000	0.942834
3544.000000	0.943086
3542.000000	0.943370
3540.000000	0.943527
3538.000000	0.943673
3536.000000	0.943841
3534.000000	0.944020
3532.000000	0.944217
3530.000000	0.944264
3528.000000	0.944354
3526.000000	0.944609
3524.000000	0.944763
3522.000000	0.944884
3520.000000	0.945062
3518.000000	0.945219
3516.000000	0.945347
3514.000000	0.945518
3512.000000	0.945748
3510.000000	0.945933
3508.000000	0.946133
3506.000000	0.946345
3504.000000	0.946524
3502.000000	0.946715
3500.000000	0.946917
3498.000000	0.947111
3496.000000	0.947310
3494.000000	0.947579
3492.000000	0.947928
3490.000000	0.948222
3488.000000	0.948362
3486.000000	0.948521
3484.000000	0.948837
3482.000000	0.949133
3480.000000	0.949304
3478.000000	0.949499
3476.000000	0.949796
3474.000000	0.950104
3472.000000	0.950282
3470.000000	0.950454
3468.000000	0.950733
3466.000000	0.951051
3464.000000	0.951387
3462.000000	0.951644
3460.000000	0.951884
3458.000000	0.952122
3456.000000	0.952333
3454.000000	0.952599
3452.000000	0.952876
3450.000000	0.953090
3448.000000	0.953303
3446.000000	0.953529
3444.000000	0.953683
3442.000000	0.953849
3440.000000	0.954039
3438.000000	0.954171
3436.000000	0.954309
3434.000000	0.954451
3432.000000	0.954561
3430.000000	0.954778
3428.000000	0.955023
3426.000000	0.955153
3424.000000	0.955270
3422.000000	0.955449
3420.000000	0.955612
3418.000000	0.955685
3416.000000	0.955762
3414.000000	0.955877
3412.000000	0.956062
3410.000000	0.956207
3408.000000	0.956315
3406.000000	0.956508
3404.000000	0.956620
3402.000000	0.956621
3400.000000	0.956705
3398.000000	0.956806
3396.000000	0.956913
3394.000000	0.957033
3392.000000	0.957104
3390.000000	0.957159
3388.000000	0.957228
3386.000000	0.957292
3384.000000	0.957350
3382.000000	0.957387
3380.000000	0.957444
3378.000000	0.957479
3376.000000	0.957465
3374.000000	0.957519
3372.000000	0.957619
3370.000000	0.957667
3368.000000	0.957672
3366.000000	0.957756
3364.000000	0.957876
3362.000000	0.957872
3360.000000	0.957853
3358.000000	0.957936
3356.000000	0.958038
3354.000000	0.958037
3352.000000	0.958033
3350.000000	0.958102
3348.000000	0.958119
3346.000000	0.958108
3344.000000	0.958180
3342.000000	0.958263
3340.000000	0.958199
3338.000000	0.958192
3336.000000	0.958402
3334.000000	0.958518
3332.000000	0.958452
3330.000000	0.958460
3328.000000	0.958554
3326.000000	0.958611
3324.000000	0.958590
3322.000000	0.958549
3320.000000	0.958627
3318.000000	0.958691
3316.000000	0.958725
3314.000000	0.958715
3312.000000	0.958738
3310.000000	0.958833
3308.000000	0.958899
3306.000000	0.958993
3304.000000	0.959014
3302.000000	0.959092
3300.000000	0.959115
3298.000000	0.959011
3296.000000	0.959070
3294.000000	0.959249
3292.000000	0.959359
3290.000000	0.959359
3288.000000	0.959344
3286.000000	0.959387
3284.000000	0.959418
3282.000000	0.959442
3280.000000	0.959485
3278.000000	0.959573
3276.000000	0.959706
3274.000000	0.959728
3272.000000	0.959701
3270.000000	0.959757
3268.000000	0.959840
3266.000000	0.959902
3264.000000	0.959957
3262.000000	0.959985
3260.000000	0.960064
3258.000000	0.960140
3256.000000	0.960094
3254.000000	0.960125
3252.000000	0.960245
3250.000000	0.960324
3248.000000	0.960369
3246.000000	0.960420
3244.000000	0.960536
3242.000000	0.960602
3240.000000	0.960590
3238.000000	0.960588
3236.000000	0.960635
3234.000000	0.960738
3232.000000	0.960755
3230.000000	0.960686
3228.000000	0.960727
3226.000000	0.960801
3224.000000	0.960769
3222.000000	0.960740
3220.000000	0.960781
3218.000000	0.960891
3216.000000	0.961024
3214.000000	0.961059
3212.000000	0.961060
3210.000000	0.961033
3208.000000	0.961036
3206.000000	0.961058
3204.000000	0.961045
3202.000000	0.961104
3200.000000	0.961225
3198.000000	0.961252
3196.000000	0.961282
3194.000000	0.961308
3192.000000	0.961249
3190.000000	0.961256
3188.000000	0.961368
3186.000000	0.961474
3184.000000	0.961471
3182.000000	0.961419
3180.000000	0.961394
3178.000000	0.961422
3176.000000	0.961445
3174.000000	0.961452
3172.000000	0.961542
3170.000000	0.961638
3168.000000	0.961635
3166.000000	0.961568
3164.000000	0.961563
3162.000000	0.961597
3160.000000	0.961634
3158.000000	0.961722
3156.000000	0.961739
3154.000000	0.961717
3152.000000	0.961741
3150.000000	0.961806
3148.000000	0.961875
3146.000000	0.961903
3144.000000	0.961943
3142.000000	0.961950
3140.000000	0.961918
3138.000000	0.961989
3136.000000	0.962065
3134.000000	0.962074
3132.000000	0.962036
3130.000000	0.962044
3128.000000	0.962152
3126.000000	0.962214
3124.000000	0.962214
3122.000000	0.962166
3120.000000	0.962125
3118.000000	0.962209
3116.000000	0.962326
3114.000000	0.962392
3112.000000	0.962426
3110.000000	0.962426
3108.000000	0.962480
3106.000000	0.962526
3104.000000	0.962489
3102.000000	0.962481
3100.000000	0.962508
3098.000000	0.962536
3096.000000	0.962461
3094.000000	0.962410
3092.000000	0.962499
3090.000000	0.962580
3088.000000	0.962652
3086.000000	0.962686
3084.000000	0.962668
3082.000000	0.962686
3080.000000	0.962754
3078.000000	0.962834
3076.000000	0.962815
3074.000000	0.962819
3072.000000	0.962913
3070.000000	0.962977
3068.000000	0.962959
3066.000000	0.962905
3064.000000	0.962897
3062.000000	0.962924
3060.000000	0.962934
3058.000000	0.962980
3056.000000	0.963056
3054.000000	0.963045
3052.000000	0.962974
3050.000000	0.962951
3048.000000	0.962977
3046.000000	0.963007
3044.000000	0.963012
3042.000000	0.963026
3040.000000	0.963016
3038.000000	0.963046
3036.000000	0.963167
3034.000000	0.963237
3032.000000	0.963232
3030.000000	0.963250
3028.000000	0.963318
3026.000000	0.963434
3024.000000	0.963411
3022.000000	0.963326
3020.000000	0.963281
3018.000000	0.963239
3016.000000	0.963174
3014.000000	0.963080
3012.000000	0.963073
3010.000000	0.963162
3008.000000	0.963253
3006.000000	0.963271
3004.000000	0.963304
3002.000000	0.963317
3000.000000	0.963247
2998.000000	0.963287
2996.000000	0.963368
2994.000000	0.963378
2992.000000	0.963432
2990.000000	0.963498
2988.000000	0.963470
2986.000000	0.963467
2984.000000	0.963552
2982.000000	0.963587
2980.000000	0.963630
2978.000000	0.963729
2976.000000	0.963790
2974.000000	0.963922
2972.000000	0.964217
2970.000000	0.964473
2968.000000	0.964620
2966.000000	0.964791
2964.000000	0.964805
2962.000000	0.964551
2960.000000	0.964284
2958.000000	0.964078
2956.000000	0.963835
2954.000000	0.963624
2952.000000	0.963493
2950.000000	0.963384
2948.000000	0.963328
2946.000000	0.963386
2944.000000	0.963520
2942.000000	0.963500
2940.000000	0.963349
2938.000000	0.963258
2936.000000	0.963237
2934.000000	0.963192
2932.000000	0.963140
2930.000000	0.963112
2928.000000	0.962960
2926.000000	0.962726
2924.000000	0.962526
2922.000000	0.962290
2920.000000	0.962100
2918.000000	0.961993
2916.000000	0.961887
2914.000000	0.961771
2912.000000	0.961797
2910.000000	0.961981
2908.000000	0.962063
2906.000000	0.962023
2904.000000	0.961939
2902.000000	0.961837
2900.000000	0.961765
2898.000000	0.961662
2896.000000	0.961498
2894.000000	0.961422
2892.000000	0.961433
2890.000000	0.961371
2888.000000	0.961301
2886.000000	0.961222
2884.000000	0.961116
2882.000000	0.960979
2880.000000	0.960835
2878.000000	0.960703
2876.000000	0.960602
2874.000000	0.960595
2872.000000	0.960591
2870.000000	0.960541
2868.000000	0.960517
2866.000000	0.960456
2864.000000	0.960252
2862.000000	0.959921
2860.000000	0.959571
2858.000000	0.959305
2856.000000	0.959086
2854.000000	0.958956
2852.000000	0.958813
2850.000000	0.958635
2848.000000	0.958485
2846.000000	0.958304
2844.000000	0.958152
2842.000000	0.958133
2840.000000	0.958146
2838.000000	0.958087
2836.000000	0.957953
2834.000000	0.957794
2832.000000	0.957665
2830.000000	0.957571
2828.000000	0.957529
2826.000000	0.957446
2824.000000	0.957230
2822.000000	0.957069
2820.000000	0.957003
2818.000000	0.956976
2816.000000	0.956870
2814.000000	0.956752
2812.000000	0.956661
2810.000000	0.956513
2808.000000	0.956361
2806.000000	0.956278
2804.000000	0.956239
2802.000000	0.956158
2800.000000	0.956021
2798.000000	0.955907
2796.000000	0.955844
2794.000000	0.955755
2792.000000	0.955601
2790.000000	0.955407
2788.000000	0.955333
2786.000000	0.955356
2784.000000	0.955257
2782.000000	0.955162
2780.000000	0.955110
2778.000000	0.955028
2776.000000	0.954972
2774.000000	0.954929
2772.000000	0.954868
2770.000000	0.954825
2768.000000	0.954737
2766.000000	0.954732
2764.000000	0.954753
2762.000000	0.954607
2760.000000	0.954477
2758.000000	0.954423
2756.000000	0.954374
2754.000000	0.954374
2752.000000	0.954325
2750.000000	0.954191
2748.000000	0.954103
2746.000000	0.954151
2744.000000	0.954197
2742.000000	0.954152
2740.000000	0.954076
2738.000000	0.954010
2736.000000	0.953986
2734.000000	0.954015
2732.000000	0.953990
2730.000000	0.953940
2728.000000	0.953966
2726.000000	0.954016
2724.000000	0.954019
2722.000000	0.954042
2720.000000	0.954023
2718.000000	0.953971
2716.000000	0.953938
2714.000000	0.953909
2712.000000	0.953919
2710.000000	0.953990
2708.000000	0.954024
2706.000000	0.953956
2704.000000	0.953921
2702.000000	0.954006
2700.000000	0.954067
2698.000000	0.954093
2696.000000	0.954094
2694.000000	0.954112
2692.000000	0.954135
2690.000000	0.954211
2688.000000	0.954318
2686.000000	0.954389
2684.000000	0.954453
2682.000000	0.954489
2680.000000	0.954481
2678.000000	0.954469
2676.000000	0.954542
2674.000000	0.954683
2672.000000	0.954803
2670.000000	0.954868
2668.000000	0.954892
2666.000000	0.954885
2664.000000	0.954951
2662.000000	0.955072
2660.000000	0.955181
2658.000000	0.955211
2656.000000	0.955262
2654.000000	0.955372
2652.000000	0.955464
2650.000000	0.955599
2648.000000	0.955693
2646.000000	0.955735
2644.000000	0.955815
2642.000000	0.955913
2640.000000	0.955995
2638.000000	0.956017
2636.000000	0.956072
2634.000000	0.956163
2632.000000	0.956229
2630.000000	0.956319
2628.000000	0.956472
2626.000000	0.956610
2624.000000	0.956739
2622.000000	0.956858
2620.000000	0.956934
2618.000000	0.956979
2616.000000	0.957007
2614.000000	0.957078
2612.000000	0.957220
2610.000000	0.957364
2608.000000	0.957476
2606.000000	0.957561
2604.000000	0.957597
2602.000000	0.957635
2600.000000	0.957764
2598.000000	0.957831
2596.000000	0.957849
2594.000000	0.957923
2592.000000	0.958038
2590.000000	0.958129
2588.000000	0.958142
2586.000000	0.958279
2584.000000	0.958434
2582.000000	0.958529
2580.000000	0.958640
2578.000000	0.958769
2576.000000	0.958879
2574.000000	0.958954
2572.000000	0.959023
2570.000000	0.959081
2568.000000	0.959124
2566.000000	0.959192
2564.000000	0.959268
2562.000000	0.959299
2560.000000	0.959319
2558.000000	0.959461
2556.000000	0.959645
2554.000000	0.959765
2552.000000	0.959808
2550.000000	0.959884
2548.000000	0.959991
2546.000000	0.960070
2544.000000	0.960185
2542.000000	0.960248
2540.000000	0.960301
2538.000000	0.960433
2536.000000	0.960563
2534.000000	0.960611
2532.000000	0.960607
2530.000000	0.960664
2528.000000	0.960827
2526.000000	0.960974
2524.000000	0.961052
2522.000000	0.961113
2520.000000	0.961199
2518.000000	0.961296
2516.000000	0.961396
2514.000000	0.961477
2512.000000	0.961531
2510.000000	0.961588
2508.000000	0.961652
2506.000000	0.961723
2504.000000	0.961810
2502.000000	0.961930
2500.000000	0.962031
2498.000000	0.962180
2496.000000	0.962315
2494.000000	0.962355
2492.000000	0.962405
2490.000000	0.962503
2488.000000	0.962580
2486.000000	0.962694
2484.000000	0.962826
2482.000000	0.962905
2480.000000	0.962997
2478.000000	0.963077
2476.000000	0.963179
2474.000000	0.963330
2472.000000	0.963403
2470.000000	0.963458
2468.000000	0.963606
2466.000000	0.963820
2464.000000	0.964009
2462.000000	0.964166
2460.000000	0.964283
2458.000000	0.964340
2456.000000	0.964475
2454.000000	0.964692
2452.000000	0.964847
2450.000000	0.964991
2448.000000	0.965142
2446.000000	0.965306
2444.000000	0.965515
2442.000000	0.965737
2440.000000	0.965930
2438.000000	0.966150
2436.000000	0.966363
2434.000000	0.966600
2432.000000	0.966922
2430.000000	0.967224
2428.000000	0.967424
2426.000000	0.967454
2424.000000	0.967448
2422.000000	0.967426
2420.000000	0.967319
2418.000000	0.967158
2416.000000	0.966964
2414.000000	0.966701
2412.000000	0.966472
2410.000000	0.966316
2408.000000	0.966141
2406.000000	0.966018
2404.000000	0.965957
2402.000000	0.965869
2400.000000	0.965819
2398.000000	0.965759
2396.000000	0.965650
2394.000000	0.965636
2392.000000	0.965737
2390.000000	0.965771
2388.000000	0.965761
2386.000000	0.965755
2384.000000	0.965791
2382.000000	0.965867
2380.000000	0.965888
2378.000000	0.965931
2376.000000	0.965964
2374.000000	0.965916
2372.000000	0.965926
2370.000000	0.965977
2368.000000	0.965934
2366.000000	0.965903
2364.000000	0.965938
2362.000000	0.965981
2360.000000	0.965977
2358.000000	0.966019
2356.000000	0.966067
2354.000000	0.966131
2352.000000	0.966274
2350.000000	0.966461
2348.000000	0.966646
2346.000000	0.966769
2344.000000	0.966926
2342.000000	0.967137
2340.000000	0.967200
2338.000000	0.967079
2336.000000	0.966978
2334.000000	0.966987
2332.000000	0.967034
2330.000000	0.967078
2328.000000	0.967130
2326.000000	0.967180
2324.000000	0.967301
2322.000000	0.967490
2320.000000	0.967625
2318.000000	0.967689
2316.000000	0.967695
2314.000000	0.967716
2312.000000	0.967817
2310.000000	0.967941
2308.000000	0.968018
2306.000000	0.968091
2304.000000	0.968184
2302.000000	0.968232
2300.000000	0.968331
2298.000000	0.968431
2296.000000	0.968448
2294.000000	0.968510
2292.000000	0.968664
2290.000000	0.968697
2288.000000	0.968641
2286.000000	0.968643
2284.000000	0.968733
2282.000000	0.968885
2280.000000	0.968961
2278.000000	0.969075
2276.000000	0.969158
2274.000000	0.969119
2272.000000	0.969158
2270.000000	0.969259
2268.000000	0.969325
2266.000000	0.969385
2264.000000	0.969430
2262.000000	0.969507
2260.000000	0.969605
2258.000000	0.969643
2256.000000	0.969702
2254.000000	0.969724
2252.000000	0.969686
2250.000000	0.969674
2248.000000	0.969764
2246.000000	0.969878
2244.000000	0.969888
2242.000000	0.969889
2240.000000	0.969919
2238.000000	0.969958
2236.000000	0.970023
2234.000000	0.970011
2232.000000	0.969980
2230.000000	0.969977
2228.000000	0.970022
2226.000000	0.970068
2224.000000	0.970103
2222.000000	0.970162
2220.000000	0.970195
2218.000000	0.970238
2216.000000	0.970306
2214.000000	0.970302
2212.000000	0.970211
2210.000000	0.970152
2208.000000	0.970166
2206.000000	0.970212
2204.000000	0.970245
2202.000000	0.970202
2200.000000	0.970157
2198.000000	0.970201
2196.000000	0.970196
2194.000000	0.970155
2192.000000	0.970160
2190.000000	0.970092
2188.000000	0.970012
2186.000000	0.970036
2184.000000	0.970052
2182.000000	0.970014
2180.000000	0.969987
2178.000000	0.969953
2176.000000	0.969851
2174.000000	0.969777
2172.000000	0.969799
2170.000000	0.969782
2168.000000	0.969697
2166.000000	0.969625
2164.000000	0.969512
2162.000000	0.969402
2160.000000	0.969398
2158.000000	0.969456
2156.000000	0.969414
2154.000000	0.969328
2152.000000	0.969273
2150.000000	0.969206
2148.000000	0.969113
2146.000000	0.968988
2144.000000	0.968944
2142.000000	0.968904
2140.000000	0.968746
2138.000000	0.968591
2136.000000	0.968581
2134.000000	0.968572
2132.000000	0.968452
2130.000000	0.968295
2128.000000	0.968189
2126.000000	0.968172
2124.000000	0.968152
2122.000000	0.968053
2120.000000	0.967911
2118.000000	0.967804
2116.000000	0.967695
2114.000000	0.967569
2112.000000	0.967490
2110.000000	0.967381
2108.000000	0.967233
2106.000000	0.967097
2104.000000	0.967022
2102.000000	0.966959
2100.000000	0.966880
2098.000000	0.966821
2096.000000	0.966717
2094.000000	0.966454
2092.000000	0.966318
2090.000000	0.966249
2088.000000	0.966165
2086.000000	0.966058
2084.000000	0.965968
2082.000000	0.965874
2080.000000	0.965733
2078.000000	0.965634
2076.000000	0.965576
2074.000000	0.965471
2072.000000	0.965403
2070.000000	0.965352
2068.000000	0.965213
2066.000000	0.965048
2064.000000	0.964900
2062.000000	0.964807
2060.000000	0.964771
2058.000000	0.964705
2056.000000	0.964525
2054.000000	0.964311
2052.000000	0.964224
2050.000000	0.964178
2048.000000	0.964047
2046.000000	0.963943
2044.000000	0.963840
2042.000000	0.963701
2040.000000	0.963620
2038.000000	0.963575
2036.000000	0.963517
2034.000000	0.963392
2032.000000	0.963192
2030.000000	0.963016
2028.000000	0.962911
2026.000000	0.962904
2024.000000	0.962887
2022.000000	0.962822
2020.000000	0.962666
2018.000000	0.962497
2016.000000	0.962414
2014.000000	0.962371
2012.000000	0.962292
2010.000000	0.962140
2008.000000	0.962088
2006.000000	0.962104
2004.000000	0.962023
2002.000000	0.961939
2000.000000	0.961856
1998.000000	0.961798
1996.000000	0.961750
1994.000000	0.961681
1992.000000	0.961606
1990.000000	0.961518
1988.000000	0.961495
1986.000000	0.961488
1984.000000	0.961414
1982.000000	0.961417
1980.000000	0.961448
1978.000000	0.961391
1976.000000	0.961266
1974.000000	0.961184
1972.000000	0.961161
1970.000000	0.961186
1968.000000	0.961240
1966.000000	0.961236
1964.000000	0.961250
1962.000000	0.961297
1960.000000	0.961303
1958.000000	0.961259
1956.000000	0.961246
1954.000000	0.961168
1952.000000	0.961153
1950.000000	0.961256
1948.000000	0.961348
1946.000000	0.961353
1944.000000	0.961301
1942.000000	0.961265
1940.000000	0.961335
1938.000000	0.961481
1936.000000	0.961600
1934.000000	0.961667
1932.000000	0.961704
1930.000000	0.961733
1928.000000	0.961714
1926.000000	0.961716
1924.000000	0.961750
1922.000000	0.961777
1920.000000	0.961888
1918.000000	0.961885
1916.000000	0.961952
1914.000000	0.962162
1912.000000	0.962279
1910.000000	0.962265
1908.000000	0.962267
1906.000000	0.962392
1904.000000	0.962524
1902.000000	0.962618
1900.000000	0.962679
1898.000000	0.962719
1896.000000	0.962793
1894.000000	0.962913
1892.000000	0.962976
1890.000000	0.962971
1888.000000	0.963022
1886.000000	0.963113
1884.000000	0.963153
1882.000000	0.963250
1880.000000	0.963382
1878.000000	0.963395
1876.000000	0.963436
1874.000000	0.963515
1872.000000	0.963551
1870.000000	0.963502
1868.000000	0.963491
1866.000000	0.963670
1864.000000	0.963815
1862.000000	0.963871
1860.000000	0.963901
1858.000000	0.963939
1856.000000	0.964015
1854.000000	0.964064
1852.000000	0.964118
1850.000000	0.964254
1848.000000	0.964421
1846.000000	0.964405
1844.000000	0.964236
1842.000000	0.964354
1840.000000	0.964545
1838.000000	0.964637
1836.000000	0.964749
1834.000000	0.964849
1832.000000	0.964879
1830.000000	0.964818
1828.000000	0.964932
1826.000000	0.965129
1824.000000	0.965231
1822.000000	0.965387
1820.000000	0.965554
1818.000000	0.965733
1816.000000	0.965837
1814.000000	0.965919
1812.000000	0.965947
1810.000000	0.965971
1808.000000	0.966127
1806.000000	0.966298
1804.000000	0.966353
1802.000000	0.966364
1800.000000	0.966410
1798.000000	0.966516
1796.000000	0.966690
1794.000000	0.966706
1792.000000	0.966589
1790.000000	0.966820
1788.000000	0.967131
1786.000000	0.967219
1784.000000	0.967274
1782.000000	0.967426
1780.000000	0.967542
1778.000000	0.967712
1776.000000	0.967846
1774.000000	0.967705
1772.000000	0.967517
1770.000000	0.967804
1768.000000	0.968069
1766.000000	0.968287
1764.000000	0.968539
1762.000000	0.968550
1760.000000	0.968707
1758.000000	0.968886
1756.000000	0.968952
1754.000000	0.969218
1752.000000	0.969224
1750.000000	0.969143
1748.000000	0.969389
1746.000000	0.969640
1744.000000	0.969761
1742.000000	0.969787
1740.000000	0.969801
1738.000000	0.969988
1736.000000	0.970042
1734.000000	0.969604
1732.000000	0.969811
1730.000000	0.970391
1728.000000	0.970654
1726.000000	0.970816
1724.000000	0.971000
1722.000000	0.971162
1720.000000	0.971044
1718.000000	0.970521
1716.000000	0.970429
1714.000000	0.970978
1712.000000	0.971465
1710.000000	0.971699
1708.000000	0.971694
1706.000000	0.971596
1704.000000	0.971552
1702.000000	0.971313
1700.000000	0.970750
1698.000000	0.971023
1696.000000	0.971115
1694.000000	0.971391
1692.000000	0.972082
1690.000000	0.972263
1688.000000	0.972320
1686.000000	0.971884
1684.000000	0.971188
1682.000000	0.971611
1680.000000	0.972306
1678.000000	0.972493
1676.000000	0.972382
1674.000000	0.972327
1672.000000	0.972529
1670.000000	0.972468
1668.000000	0.972542
1666.000000	0.972825
1664.000000	0.972821
1662.000000	0.972690
1660.000000	0.972915
1658.000000	0.973135
1656.000000	0.973035
1654.000000	0.972108
1652.000000	0.971525
1650.000000	0.972442
1648.000000	0.972920
1646.000000	0.972770
1644.000000	0.973041
1642.000000	0.973407
1640.000000	0.973440
1638.000000	0.973286
1636.000000	0.972840
1634.000000	0.972793
1632.000000	0.973274
1630.000000	0.973429
1628.000000	0.973337
1626.000000	0.973370
1624.000000	0.973332
1622.000000	0.973308
1620.000000	0.973400
1618.000000	0.973078
1616.000000	0.972883
1614.000000	0.973494
1612.000000	0.973923
1610.000000	0.973778
1608.000000	0.973518
1606.000000	0.973395
1604.000000	0.973373
1602.000000	0.973387
1600.000000	0.973455
1598.000000	0.973542
1596.000000	0.973642
1594.000000	0.973708
1592.000000	0.973742
1590.000000	0.973807
1588.000000	0.973888
1586.000000	0.973923
1584.000000	0.973896
1582.000000	0.973853
1580.000000	0.973848
1578.000000	0.973652
1576.000000	0.973182
1574.000000	0.973424
1572.000000	0.973900
1570.000000	0.973827
1568.000000	0.973876
1566.000000	0.974069
1564.000000	0.974149
1562.000000	0.974032
1560.000000	0.973222
1558.000000	0.972742
1556.000000	0.973334
1554.000000	0.973781
1552.000000	0.974132
1550.000000	0.974348
1548.000000	0.974495
1546.000000	0.974503
1544.000000	0.974334
1542.000000	0.974005
1540.000000	0.973411
1538.000000	0.973567
1536.000000	0.974372
1534.000000	0.974543
1532.000000	0.974607
1530.000000	0.974846
1528.000000	0.974893
1526.000000	0.974801
1524.000000	0.974685
1522.000000	0.974374
1520.000000	0.974268
1518.000000	0.974609
1516.000000	0.974871
1514.000000	0.975052
1512.000000	0.975095
1510.000000	0.975061
1508.000000	0.974611
1506.000000	0.974172
1504.000000	0.974778
1502.000000	0.975718
1500.000000	0.976186
1498.000000	0.976122
1496.000000	0.975542
1494.000000	0.974939
1492.000000	0.974400
1490.000000	0.973960
1488.000000	0.974035
1486.000000	0.974483
1484.000000	0.974953
1482.000000	0.975100
1480.000000	0.975123
1478.000000	0.975152
1476.000000	0.975009
1474.000000	0.974703
1472.000000	0.974570
1470.000000	0.974948
1468.000000	0.975213
1466.000000	0.975099
1464.000000	0.975031
1462.000000	0.975232
1460.000000	0.975234
1458.000000	0.974748
1456.000000	0.974457
1454.000000	0.974907
1452.000000	0.975105
1450.000000	0.974686
1448.000000	0.974322
1446.000000	0.974538
1444.000000	0.974762
1442.000000	0.974775
1440.000000	0.974766
1438.000000	0.974546
1436.000000	0.974228
1434.000000	0.974394
1432.000000	0.974580
1430.000000	0.974617
1428.000000	0.974599
1426.000000	0.974559
1424.000000	0.974426
1422.000000	0.974328
1420.000000	0.973967
1418.000000	0.973826
1416.000000	0.974173
1414.000000	0.974357
1412.000000	0.974389
1410.000000	0.974411
1408.000000	0.974466
1406.000000	0.974328
1404.000000	0.973999
1402.000000	0.973740
1400.000000	0.973551
1398.000000	0.973402
1396.000000	0.973225
1394.000000	0.973120
1392.000000	0.973224
1390.000000	0.973329
1388.000000	0.973261
1386.000000	0.973241
1384.000000	0.973188
1382.000000	0.973029
1380.000000	0.972960
1378.000000	0.972955
1376.000000	0.972835
1374.000000	0.972669
1372.000000	0.972585
1370.000000	0.972542
1368.000000	0.972446
1366.000000	0.972327
1364.000000	0.972206
1362.000000	0.972075
1360.000000	0.972022
1358.000000	0.971992
1356.000000	0.971976
1354.000000	0.971941
1352.000000	0.971852
1350.000000	0.971778
1348.000000	0.971713
1346.000000	0.971556
1344.000000	0.971450
1342.000000	0.971410
1340.000000	0.971351
1338.000000	0.971262
1336.000000	0.971164
1334.000000	0.971103
1332.000000	0.971104
1330.000000	0.971067
1328.000000	0.971036
1326.000000	0.971016
1324.000000	0.970898
1322.000000	0.970738
1320.000000	0.970616
1318.000000	0.970547
1316.000000	0.970462
1314.000000	0.970359
1312.000000	0.970312
1310.000000	0.970303
1308.000000	0.970358
1306.000000	0.970417
1304.000000	0.970321
1302.000000	0.970079
1300.000000	0.969963
1298.000000	0.970047
1296.000000	0.969915
1294.000000	0.969697
1292.000000	0.969642
1290.000000	0.969681
1288.000000	0.969803
1286.000000	0.969739
1284.000000	0.969718
1282.000000	0.969786
1280.000000	0.969798
1278.000000	0.969751
1276.000000	0.969777
1274.000000	0.969824
1272.000000	0.970048
1270.000000	0.970571
1268.000000	0.971339
1266.000000	0.972461
1264.000000	0.973503
1262.000000	0.974069
1260.000000	0.973954
1258.000000	0.973372
1256.000000	0.972540
1254.000000	0.971645
1252.000000	0.970915
1250.000000	0.970550
1248.000000	0.970356
1246.000000	0.970243
1244.000000	0.970220
1242.000000	0.970271
1240.000000	0.970306
1238.000000	0.970218
1236.000000	0.970212
1234.000000	0.970259
1232.000000	0.970254
1230.000000	0.970219
1228.000000	0.970190
1226.000000	0.970213
1224.000000	0.970292
1222.000000	0.970279
1220.000000	0.970278
1218.000000	0.970367
1216.000000	0.970517
1214.000000	0.970608
1212.000000	0.970550
1210.000000	0.970430
1208.000000	0.970391
1206.000000	0.970392
1204.000000	0.970432
1202.000000	0.970349
1200.000000	0.970415
1198.000000	0.970629
1196.000000	0.970792
1194.000000	0.970934
1192.000000	0.970930
1190.000000	0.971033
1188.000000	0.971267
1186.000000	0.971581
1184.000000	0.971840
1182.000000	0.971867
1180.000000	0.971741
1178.000000	0.971722
1176.000000	0.971864
1174.000000	0.972205
1172.000000	0.972462
1170.000000	0.972590
1168.000000	0.972762
1166.000000	0.972832
1164.000000	0.972927
1162.000000	0.973027
1160.000000	0.973311
1158.000000	0.973644
1156.000000	0.973633
1154.000000	0.973624
1152.000000	0.973797
1150.000000	0.973794
1148.000000	0.973651
1146.000000	0.973782
1144.000000	0.973992
1142.000000	0.974137
1140.000000	0.974112
1138.000000	0.973975
1136.000000	0.974056
1134.000000	0.974106
1132.000000	0.974115
1130.000000	0.974201
1128.000000	0.974203
1126.000000	0.974404
1124.000000	0.974632
1122.000000	0.974590
1120.000000	0.974716
1118.000000	0.975046
1116.000000	0.975256
1114.000000	0.975286
1112.000000	0.975355
1110.000000	0.975651
1108.000000	0.975966
1106.000000	0.976066
1104.000000	0.976167
1102.000000	0.975970
1100.000000	0.975947
1098.000000	0.976275
1096.000000	0.976891
1094.000000	0.977170
1092.000000	0.976666
1090.000000	0.976130
1088.000000	0.975816
1086.000000	0.975602
1084.000000	0.975270
1082.000000	0.974545
1080.000000	0.974022
1078.000000	0.973765
1076.000000	0.973321
1074.000000	0.972715
1072.000000	0.971854
1070.000000	0.970903
1068.000000	0.970000
1066.000000	0.969086
1064.000000	0.968176
1062.000000	0.967388
1060.000000	0.966615
1058.000000	0.966324
1056.000000	0.966076
1054.000000	0.965064
1052.000000	0.964441
1050.000000	0.963858
1048.000000	0.963099
1046.000000	0.962659
1044.000000	0.962077
1042.000000	0.961768
1040.000000	0.961887
1038.000000	0.961212
1036.000000	0.960594
1034.000000	0.960940
1032.000000	0.960906
1030.000000	0.960571
1028.000000	0.960468
1026.000000	0.960352
1024.000000	0.960123
1022.000000	0.960304
1020.000000	0.960447
1018.000000	0.959846
1016.000000	0.959052
1014.000000	0.959500
1012.000000	0.960042
1010.000000	0.960327
1008.000000	0.960280
1006.000000	0.959090
1004.000000	0.957965
1002.000000	0.957374
1000.000000	0.958111
