PE IR       SUBTECH     SPECTRUM    ASCII       PEDS        4.00        
   -1
TE109A_022_80K_after_90K_SB.ASC
20/04/21
12:54:06.00
20/04/21
12:54:06.00
Administrator
TE109A, Tuesday, April 21 2020, 001.
1000.000000
#HDR
-1
-1
#GR
cm-1
EGY
1.0
0.0
6000.000000
-2.000000
2501
8
6.587969
0.684007
#DATA
6000.000000	1.057564
5998.000000	1.059657
5996.000000	1.061774
5994.000000	1.063869
5992.000000	1.065435
5990.000000	1.068038
5988.000000	1.071462
5986.000000	1.074654
5984.000000	1.077371
5982.000000	1.079887
5980.000000	1.081550
5978.000000	1.082407
5976.000000	1.082247
5974.000000	1.083820
5972.000000	1.086667
5970.000000	1.089057
5968.000000	1.090732
5966.000000	1.092500
5964.000000	1.095260
5962.000000	1.097913
5960.000000	1.100110
5958.000000	1.103518
5956.000000	1.106731
5954.000000	1.108576
5952.000000	1.110480
5950.000000	1.112330
5948.000000	1.113679
5946.000000	1.115398
5944.000000	1.118091
5942.000000	1.121816
5940.000000	1.124758
5938.000000	1.125874
5936.000000	1.128258
5934.000000	1.131240
5932.000000	1.133925
5930.000000	1.135388
5928.000000	1.136461
5926.000000	1.138845
5924.000000	1.140914
5922.000000	1.143671
5920.000000	1.146823
5918.000000	1.150012
5916.000000	1.153571
5914.000000	1.155335
5912.000000	1.156422
5910.000000	1.158004
5908.000000	1.160348
5906.000000	1.163657
5904.000000	1.166401
5902.000000	1.168816
5900.000000	1.170966
5898.000000	1.173485
5896.000000	1.175443
5894.000000	1.176076
5892.000000	1.177802
5890.000000	1.181251
5888.000000	1.184396
5886.000000	1.187121
5884.000000	1.189229
5882.000000	1.192014
5880.000000	1.193910
5878.000000	1.194093
5876.000000	1.194978
5874.000000	1.198922
5872.000000	1.203879
5870.000000	1.208348
5868.000000	1.209457
5866.000000	1.209493
5864.000000	1.211080
5862.000000	1.213460
5860.000000	1.217919
5858.000000	1.222104
5856.000000	1.225752
5854.000000	1.228245
5852.000000	1.230084
5850.000000	1.233251
5848.000000	1.236196
5846.000000	1.237798
5844.000000	1.237886
5842.000000	1.240517
5840.000000	1.244991
5838.000000	1.249066
5836.000000	1.250913
5834.000000	1.251150
5832.000000	1.253361
5830.000000	1.257448
5828.000000	1.261617
5826.000000	1.264180
5824.000000	1.266359
5822.000000	1.269966
5820.000000	1.274609
5818.000000	1.276686
5816.000000	1.277618
5814.000000	1.278633
5812.000000	1.281185
5810.000000	1.283644
5808.000000	1.285728
5806.000000	1.288240
5804.000000	1.290868
5802.000000	1.293861
5800.000000	1.295823
5798.000000	1.299045
5796.000000	1.301991
5794.000000	1.305551
5792.000000	1.308366
5790.000000	1.309970
5788.000000	1.311826
5786.000000	1.313869
5784.000000	1.316548
5782.000000	1.319926
5780.000000	1.323797
5778.000000	1.326645
5776.000000	1.328057
5774.000000	1.329629
5772.000000	1.332248
5770.000000	1.335971
5768.000000	1.340412
5766.000000	1.342799
5764.000000	1.345792
5762.000000	1.347290
5760.000000	1.348963
5758.000000	1.351423
5756.000000	1.354670
5754.000000	1.358861
5752.000000	1.362443
5750.000000	1.364510
5748.000000	1.367136
5746.000000	1.369459
5744.000000	1.372562
5742.000000	1.375921
5740.000000	1.378200
5738.000000	1.380041
5736.000000	1.382344
5734.000000	1.386192
5732.000000	1.389849
5730.000000	1.391326
5728.000000	1.392864
5726.000000	1.396226
5724.000000	1.399908
5722.000000	1.402234
5720.000000	1.403641
5718.000000	1.405129
5716.000000	1.406980
5714.000000	1.409654
5712.000000	1.412448
5710.000000	1.416567
5708.000000	1.420037
5706.000000	1.423286
5704.000000	1.426978
5702.000000	1.428986
5700.000000	1.431089
5698.000000	1.433845
5696.000000	1.437360
5694.000000	1.441830
5692.000000	1.445083
5690.000000	1.447173
5688.000000	1.448731
5686.000000	1.450314
5684.000000	1.453795
5682.000000	1.458005
5680.000000	1.461837
5678.000000	1.464738
5676.000000	1.466974
5674.000000	1.469944
5672.000000	1.473099
5670.000000	1.475528
5668.000000	1.477991
5666.000000	1.481358
5664.000000	1.485437
5662.000000	1.488796
5660.000000	1.490414
5658.000000	1.491576
5656.000000	1.493729
5654.000000	1.498268
5652.000000	1.504447
5650.000000	1.508459
5648.000000	1.510093
5646.000000	1.511412
5644.000000	1.514113
5642.000000	1.517254
5640.000000	1.519503
5638.000000	1.522797
5636.000000	1.525910
5634.000000	1.529424
5632.000000	1.532750
5630.000000	1.535699
5628.000000	1.537331
5626.000000	1.539148
5624.000000	1.542141
5622.000000	1.546798
5620.000000	1.549923
5618.000000	1.552365
5616.000000	1.556023
5614.000000	1.560822
5612.000000	1.566474
5610.000000	1.569799
5608.000000	1.570709
5606.000000	1.571365
5604.000000	1.573491
5602.000000	1.578071
5600.000000	1.582002
5598.000000	1.584553
5596.000000	1.587284
5594.000000	1.591231
5592.000000	1.594817
5590.000000	1.596794
5588.000000	1.597814
5586.000000	1.600095
5584.000000	1.603101
5582.000000	1.606305
5580.000000	1.610591
5578.000000	1.614798
5576.000000	1.619017
5574.000000	1.623007
5572.000000	1.625622
5570.000000	1.627334
5568.000000	1.630105
5566.000000	1.633752
5564.000000	1.637018
5562.000000	1.639146
5560.000000	1.641752
5558.000000	1.645765
5556.000000	1.649043
5554.000000	1.652170
5552.000000	1.655889
5550.000000	1.658890
5548.000000	1.662571
5546.000000	1.665358
5544.000000	1.668010
5542.000000	1.670796
5540.000000	1.675101
5538.000000	1.679181
5536.000000	1.682200
5534.000000	1.684331
5532.000000	1.688026
5530.000000	1.692138
5528.000000	1.694330
5526.000000	1.694865
5524.000000	1.696619
5522.000000	1.701241
5520.000000	1.704940
5518.000000	1.707680
5516.000000	1.710639
5514.000000	1.714669
5512.000000	1.717648
5510.000000	1.719883
5508.000000	1.723149
5506.000000	1.727505
5504.000000	1.732436
5502.000000	1.736743
5500.000000	1.739508
5498.000000	1.741480
5496.000000	1.744070
5494.000000	1.747006
5492.000000	1.749102
5490.000000	1.751552
5488.000000	1.754410
5486.000000	1.758389
5484.000000	1.762352
5482.000000	1.766364
5480.000000	1.769850
5478.000000	1.772468
5476.000000	1.775798
5474.000000	1.778774
5472.000000	1.782684
5470.000000	1.787287
5468.000000	1.791389
5466.000000	1.794758
5464.000000	1.797486
5462.000000	1.801662
5460.000000	1.805823
5458.000000	1.807817
5456.000000	1.808826
5454.000000	1.811914
5452.000000	1.817487
5450.000000	1.822670
5448.000000	1.825202
5446.000000	1.825789
5444.000000	1.827073
5442.000000	1.830480
5440.000000	1.835388
5438.000000	1.840596
5436.000000	1.844774
5434.000000	1.848255
5432.000000	1.849977
5430.000000	1.851963
5428.000000	1.854977
5426.000000	1.858523
5424.000000	1.862984
5422.000000	1.866766
5420.000000	1.870285
5418.000000	1.872086
5416.000000	1.875079
5414.000000	1.879662
5412.000000	1.883606
5410.000000	1.886821
5408.000000	1.890176
5406.000000	1.893653
5404.000000	1.897502
5402.000000	1.901556
5400.000000	1.905268
5398.000000	1.907187
5396.000000	1.908351
5394.000000	1.911769
5392.000000	1.915744
5390.000000	1.918229
5388.000000	1.920906
5386.000000	1.924735
5384.000000	1.929796
5382.000000	1.933894
5380.000000	1.936416
5378.000000	1.938564
5376.000000	1.941430
5374.000000	1.945794
5372.000000	1.950794
5370.000000	1.954509
5368.000000	1.956796
5366.000000	1.959448
5364.000000	1.964375
5362.000000	1.969528
5360.000000	1.971382
5358.000000	1.971474
5356.000000	1.973801
5354.000000	1.978404
5352.000000	1.983229
5350.000000	1.987338
5348.000000	1.988315
5346.000000	1.990244
5344.000000	1.992920
5342.000000	1.995792
5340.000000	1.997829
5338.000000	2.001670
5336.000000	2.007666
5334.000000	2.010941
5332.000000	2.012578
5330.000000	2.015526
5328.000000	2.019419
5326.000000	2.023025
5324.000000	2.026596
5322.000000	2.030860
5320.000000	2.034521
5318.000000	2.038392
5316.000000	2.042023
5314.000000	2.044960
5312.000000	2.046315
5310.000000	2.048383
5308.000000	2.052126
5306.000000	2.055043
5304.000000	2.056743
5302.000000	2.057731
5300.000000	2.060289
5298.000000	2.063930
5296.000000	2.066845
5294.000000	2.068671
5292.000000	2.071427
5290.000000	2.075744
5288.000000	2.079368
5286.000000	2.080900
5284.000000	2.082506
5282.000000	2.085783
5280.000000	2.089228
5278.000000	2.092477
5276.000000	2.095276
5274.000000	2.097430
5272.000000	2.098945
5270.000000	2.100531
5268.000000	2.102284
5266.000000	2.104778
5264.000000	2.107622
5262.000000	2.111787
5260.000000	2.114413
5258.000000	2.116071
5256.000000	2.117707
5254.000000	2.120374
5252.000000	2.122790
5250.000000	2.124934
5248.000000	2.127187
5246.000000	2.129893
5244.000000	2.131210
5242.000000	2.130788
5240.000000	2.131878
5238.000000	2.135437
5236.000000	2.138738
5234.000000	2.139404
5232.000000	2.139977
5230.000000	2.141595
5228.000000	2.143192
5226.000000	2.144408
5224.000000	2.145992
5222.000000	2.146513
5220.000000	2.147885
5218.000000	2.151233
5216.000000	2.155114
5214.000000	2.156671
5212.000000	2.156366
5210.000000	2.156126
5208.000000	2.156830
5206.000000	2.159320
5204.000000	2.162940
5202.000000	2.165360
5200.000000	2.165239
5198.000000	2.164672
5196.000000	2.165917
5194.000000	2.168202
5192.000000	2.170839
5190.000000	2.172401
5188.000000	2.173066
5186.000000	2.174748
5184.000000	2.177659
5182.000000	2.180283
5180.000000	2.181350
5178.000000	2.181659
5176.000000	2.182065
5174.000000	2.182863
5172.000000	2.185497
5170.000000	2.187968
5168.000000	2.189279
5166.000000	2.190034
5164.000000	2.191342
5162.000000	2.192862
5160.000000	2.194127
5158.000000	2.195754
5156.000000	2.197209
5154.000000	2.198866
5152.000000	2.200672
5150.000000	2.203573
5148.000000	2.205967
5146.000000	2.207208
5144.000000	2.207993
5142.000000	2.210509
5140.000000	2.213218
5138.000000	2.215360
5136.000000	2.218263
5134.000000	2.222398
5132.000000	2.225390
5130.000000	2.226820
5128.000000	2.228316
5126.000000	2.230252
5124.000000	2.232384
5122.000000	2.234248
5120.000000	2.236802
5118.000000	2.239798
5116.000000	2.242464
5114.000000	2.245092
5112.000000	2.249050
5110.000000	2.253565
5108.000000	2.256456
5106.000000	2.258396
5104.000000	2.260636
5102.000000	2.262552
5100.000000	2.264432
5098.000000	2.268159
5096.000000	2.273133
5094.000000	2.277836
5092.000000	2.280219
5090.000000	2.282511
5088.000000	2.286264
5086.000000	2.289981
5084.000000	2.292653
5082.000000	2.296148
5080.000000	2.299751
5078.000000	2.302039
5076.000000	2.305341
5074.000000	2.311107
5072.000000	2.315400
5070.000000	2.317642
5068.000000	2.320246
5066.000000	2.323758
5064.000000	2.327864
5062.000000	2.332424
5060.000000	2.334960
5058.000000	2.335846
5056.000000	2.338636
5054.000000	2.343672
5052.000000	2.348240
5050.000000	2.352063
5048.000000	2.355971
5046.000000	2.359682
5044.000000	2.363807
5042.000000	2.367979
5040.000000	2.371128
5038.000000	2.373686
5036.000000	2.378616
5034.000000	2.384889
5032.000000	2.389012
5030.000000	2.391427
5028.000000	2.394325
5026.000000	2.397893
5024.000000	2.400641
5022.000000	2.403673
5020.000000	2.407747
5018.000000	2.413087
5016.000000	2.419385
5014.000000	2.423857
5012.000000	2.426982
5010.000000	2.431378
5008.000000	2.436616
5006.000000	2.439701
5004.000000	2.442037
5002.000000	2.446527
5000.000000	2.451094
4998.000000	2.453086
4996.000000	2.454423
4994.000000	2.460068
4992.000000	2.467321
4990.000000	2.472402
4988.000000	2.475504
4986.000000	2.479891
4984.000000	2.485256
4982.000000	2.490554
4980.000000	2.494872
4978.000000	2.499413
4976.000000	2.504738
4974.000000	2.509179
4972.000000	2.512266
4970.000000	2.515921
4968.000000	2.519869
4966.000000	2.524249
4964.000000	2.529888
4962.000000	2.534819
4960.000000	2.537441
4958.000000	2.541023
4956.000000	2.546786
4954.000000	2.552055
4952.000000	2.555357
4950.000000	2.559812
4948.000000	2.566064
4946.000000	2.571294
4944.000000	2.574559
4942.000000	2.578146
4940.000000	2.583708
4938.000000	2.589030
4936.000000	2.592071
4934.000000	2.594685
4932.000000	2.599667
4930.000000	2.606860
4928.000000	2.612293
4926.000000	2.615687
4924.000000	2.619353
4922.000000	2.624003
4920.000000	2.629368
4918.000000	2.634548
4916.000000	2.639135
4914.000000	2.643536
4912.000000	2.648609
4910.000000	2.653112
4908.000000	2.657057
4906.000000	2.662583
4904.000000	2.669439
4902.000000	2.675071
4900.000000	2.679189
4898.000000	2.682985
4896.000000	2.686992
4894.000000	2.691540
4892.000000	2.697925
4890.000000	2.705462
4888.000000	2.711204
4886.000000	2.714908
4884.000000	2.719033
4882.000000	2.724568
4880.000000	2.729551
4878.000000	2.734168
4876.000000	2.738692
4874.000000	2.743360
4872.000000	2.749285
4870.000000	2.756970
4868.000000	2.764274
4866.000000	2.769336
4864.000000	2.773019
4862.000000	2.776091
4860.000000	2.779916
4858.000000	2.786268
4856.000000	2.793784
4854.000000	2.798753
4852.000000	2.801389
4850.000000	2.805833
4848.000000	2.812946
4846.000000	2.819382
4844.000000	2.824382
4842.000000	2.829559
4840.000000	2.835452
4838.000000	2.840869
4836.000000	2.845929
4834.000000	2.851218
4832.000000	2.857035
4830.000000	2.863119
4828.000000	2.868140
4826.000000	2.873641
4824.000000	2.878982
4822.000000	2.883839
4820.000000	2.888935
4818.000000	2.894748
4816.000000	2.900099
4814.000000	2.905719
4812.000000	2.912445
4810.000000	2.918282
4808.000000	2.922462
4806.000000	2.927104
4804.000000	2.931877
4802.000000	2.937281
4800.000000	2.943537
4798.000000	2.950617
4796.000000	2.957302
4794.000000	2.964254
4792.000000	2.971474
4790.000000	2.977433
4788.000000	2.983284
4786.000000	2.988619
4784.000000	2.992342
4782.000000	2.996662
4780.000000	3.004187
4778.000000	3.013163
4776.000000	3.020009
4774.000000	3.024522
4772.000000	3.028670
4770.000000	3.033772
4768.000000	3.039867
4766.000000	3.046370
4764.000000	3.053017
4762.000000	3.059539
4760.000000	3.065055
4758.000000	3.069347
4756.000000	3.073822
4754.000000	3.079733
4752.000000	3.084794
4750.000000	3.088636
4748.000000	3.092693
4746.000000	3.097928
4744.000000	3.105494
4742.000000	3.114813
4740.000000	3.122078
4738.000000	3.126099
4736.000000	3.129723
4734.000000	3.133789
4732.000000	3.137911
4730.000000	3.142594
4728.000000	3.148221
4726.000000	3.153763
4724.000000	3.160173
4722.000000	3.168082
4720.000000	3.175930
4718.000000	3.181300
4716.000000	3.186060
4714.000000	3.192048
4712.000000	3.197609
4710.000000	3.201985
4708.000000	3.207479
4706.000000	3.214901
4704.000000	3.221786
4702.000000	3.226792
4700.000000	3.231463
4698.000000	3.236816
4696.000000	3.242013
4694.000000	3.247713
4692.000000	3.254253
4690.000000	3.260501
4688.000000	3.266791
4686.000000	3.273505
4684.000000	3.279332
4682.000000	3.284716
4680.000000	3.290402
4678.000000	3.295430
4676.000000	3.300091
4674.000000	3.305117
4672.000000	3.310609
4670.000000	3.315856
4668.000000	3.320522
4666.000000	3.325239
4664.000000	3.330928
4662.000000	3.337929
4660.000000	3.344125
4658.000000	3.348815
4656.000000	3.353833
4654.000000	3.360182
4652.000000	3.366327
4650.000000	3.370845
4648.000000	3.374420
4646.000000	3.378281
4644.000000	3.383217
4642.000000	3.388498
4640.000000	3.394593
4638.000000	3.401779
4636.000000	3.408316
4634.000000	3.413719
4632.000000	3.418554
4630.000000	3.424907
4628.000000	3.431731
4626.000000	3.437229
4624.000000	3.440381
4622.000000	3.444182
4620.000000	3.449172
4618.000000	3.455487
4616.000000	3.462961
4614.000000	3.469580
4612.000000	3.474456
4610.000000	3.479271
4608.000000	3.483803
4606.000000	3.488157
4604.000000	3.493947
4602.000000	3.499770
4600.000000	3.504809
4598.000000	3.510472
4596.000000	3.517417
4594.000000	3.523931
4592.000000	3.529308
4590.000000	3.534028
4588.000000	3.539900
4586.000000	3.545490
4584.000000	3.549808
4582.000000	3.554611
4580.000000	3.560940
4578.000000	3.567264
4576.000000	3.572439
4574.000000	3.577710
4572.000000	3.582606
4570.000000	3.587102
4568.000000	3.591564
4566.000000	3.596746
4564.000000	3.602554
4562.000000	3.608625
4560.000000	3.613510
4558.000000	3.617815
4556.000000	3.623022
4554.000000	3.628757
4552.000000	3.633532
4550.000000	3.637975
4548.000000	3.642918
4546.000000	3.647147
4544.000000	3.650539
4542.000000	3.655490
4540.000000	3.662829
4538.000000	3.669598
4536.000000	3.674391
4534.000000	3.678316
4532.000000	3.683654
4530.000000	3.688900
4528.000000	3.693930
4526.000000	3.700341
4524.000000	3.706221
4522.000000	3.710270
4520.000000	3.714480
4518.000000	3.719605
4516.000000	3.724567
4514.000000	3.730799
4512.000000	3.737908
4510.000000	3.744345
4508.000000	3.748986
4506.000000	3.753062
4504.000000	3.757422
4502.000000	3.762308
4500.000000	3.768813
4498.000000	3.775876
4496.000000	3.781166
4494.000000	3.785257
4492.000000	3.789551
4490.000000	3.794653
4488.000000	3.800990
4486.000000	3.808114
4484.000000	3.813991
4482.000000	3.818413
4480.000000	3.822036
4478.000000	3.825742
4476.000000	3.830364
4474.000000	3.836981
4472.000000	3.843628
4470.000000	3.848607
4468.000000	3.852480
4466.000000	3.856710
4464.000000	3.860728
4462.000000	3.865024
4460.000000	3.871452
4458.000000	3.878344
4456.000000	3.882572
4454.000000	3.885852
4452.000000	3.890131
4450.000000	3.894953
4448.000000	3.900627
4446.000000	3.905721
4444.000000	3.909858
4442.000000	3.914394
4440.000000	3.919615
4438.000000	3.924521
4436.000000	3.929253
4434.000000	3.934584
4432.000000	3.940614
4430.000000	3.946523
4428.000000	3.951997
4426.000000	3.956554
4424.000000	3.960134
4422.000000	3.964360
4420.000000	3.968636
4418.000000	3.972637
4416.000000	3.977945
4414.000000	3.983551
4412.000000	3.987614
4410.000000	3.992571
4408.000000	3.998211
4406.000000	4.003461
4404.000000	4.008740
4402.000000	4.013662
4400.000000	4.017749
4398.000000	4.022056
4396.000000	4.026623
4394.000000	4.031135
4392.000000	4.035648
4390.000000	4.041139
4388.000000	4.047863
4386.000000	4.052377
4384.000000	4.053235
4382.000000	4.055038
4380.000000	4.059810
4378.000000	4.064299
4376.000000	4.068467
4374.000000	4.074444
4372.000000	4.079950
4370.000000	4.082898
4368.000000	4.084588
4366.000000	4.087298
4364.000000	4.091486
4362.000000	4.096136
4360.000000	4.099889
4358.000000	4.103842
4356.000000	4.109711
4354.000000	4.115350
4352.000000	4.118227
4350.000000	4.120051
4348.000000	4.123172
4346.000000	4.126934
4344.000000	4.130831
4342.000000	4.134832
4340.000000	4.138743
4338.000000	4.142719
4336.000000	4.146827
4334.000000	4.150876
4332.000000	4.155459
4330.000000	4.160627
4328.000000	4.165017
4326.000000	4.167886
4324.000000	4.171688
4322.000000	4.177878
4320.000000	4.183401
4318.000000	4.186819
4316.000000	4.190004
4314.000000	4.193638
4312.000000	4.196810
4310.000000	4.199521
4308.000000	4.202953
4306.000000	4.208663
4304.000000	4.213992
4302.000000	4.217086
4300.000000	4.221046
4298.000000	4.227409
4296.000000	4.231975
4294.000000	4.234893
4292.000000	4.239286
4290.000000	4.244543
4288.000000	4.248072
4286.000000	4.250945
4284.000000	4.254332
4282.000000	4.258007
4280.000000	4.260942
4278.000000	4.264881
4276.000000	4.270193
4274.000000	4.273935
4272.000000	4.275132
4270.000000	4.277325
4268.000000	4.281399
4266.000000	4.286400
4264.000000	4.291494
4262.000000	4.295994
4260.000000	4.299274
4258.000000	4.301503
4256.000000	4.304335
4254.000000	4.309200
4252.000000	4.313206
4250.000000	4.315484
4248.000000	4.319873
4246.000000	4.326274
4244.000000	4.331308
4242.000000	4.334545
4240.000000	4.337417
4238.000000	4.341192
4236.000000	4.346084
4234.000000	4.350446
4232.000000	4.353568
4230.000000	4.356843
4228.000000	4.361676
4226.000000	4.368014
4224.000000	4.373510
4222.000000	4.376717
4220.000000	4.380124
4218.000000	4.385036
4216.000000	4.389698
4214.000000	4.394643
4212.000000	4.399839
4210.000000	4.403047
4208.000000	4.406118
4206.000000	4.411257
4204.000000	4.416401
4202.000000	4.421473
4200.000000	4.427699
4198.000000	4.433297
4196.000000	4.437396
4194.000000	4.441595
4192.000000	4.446567
4190.000000	4.451166
4188.000000	4.455152
4186.000000	4.459302
4184.000000	4.464763
4182.000000	4.470607
4180.000000	4.474252
4178.000000	4.476578
4176.000000	4.480777
4174.000000	4.486494
4172.000000	4.490845
4170.000000	4.493810
4168.000000	4.497976
4166.000000	4.503052
4164.000000	4.508806
4162.000000	4.514493
4160.000000	4.518918
4158.000000	4.523169
4156.000000	4.526882
4154.000000	4.529621
4152.000000	4.532980
4150.000000	4.537349
4148.000000	4.543493
4146.000000	4.550508
4144.000000	4.555648
4142.000000	4.558314
4140.000000	4.561447
4138.000000	4.566833
4136.000000	4.572332
4134.000000	4.577234
4132.000000	4.581614
4130.000000	4.585498
4128.000000	4.590268
4126.000000	4.595559
4124.000000	4.600804
4122.000000	4.607080
4120.000000	4.611949
4118.000000	4.614684
4116.000000	4.618890
4114.000000	4.624790
4112.000000	4.629104
4110.000000	4.632280
4108.000000	4.635883
4106.000000	4.640887
4104.000000	4.648182
4102.000000	4.655600
4100.000000	4.660549
4098.000000	4.663564
4096.000000	4.665734
4094.000000	4.669848
4092.000000	4.676221
4090.000000	4.681353
4088.000000	4.685693
4086.000000	4.691026
4084.000000	4.695899
4082.000000	4.700046
4080.000000	4.704240
4078.000000	4.709440
4076.000000	4.715266
4074.000000	4.719828
4072.000000	4.722735
4070.000000	4.725948
4068.000000	4.730521
4066.000000	4.736299
4064.000000	4.741683
4062.000000	4.745672
4060.000000	4.749370
4058.000000	4.753783
4056.000000	4.758412
4054.000000	4.762572
4052.000000	4.766880
4050.000000	4.772946
4048.000000	4.778081
4046.000000	4.780959
4044.000000	4.784463
4042.000000	4.789671
4040.000000	4.794426
4038.000000	4.798789
4036.000000	4.804363
4034.000000	4.810128
4032.000000	4.814368
4030.000000	4.818903
4028.000000	4.824067
4026.000000	4.829002
4024.000000	4.833998
4022.000000	4.838692
4020.000000	4.842542
4018.000000	4.846734
4016.000000	4.851323
4014.000000	4.856382
4012.000000	4.862719
4010.000000	4.870291
4008.000000	4.876239
4006.000000	4.879749
4004.000000	4.884474
4002.000000	4.890660
4000.000000	4.895202
3998.000000	4.899289
3996.000000	4.905502
3994.000000	4.913353
3992.000000	4.919643
3990.000000	4.923678
3988.000000	4.927259
3986.000000	4.932614
3984.000000	4.940024
3982.000000	4.946775
3980.000000	4.952751
3978.000000	4.958021
3976.000000	4.961882
3974.000000	4.966333
3972.000000	4.971703
3970.000000	4.978528
3968.000000	4.987362
3966.000000	4.995455
3964.000000	5.002040
3962.000000	5.008471
3960.000000	5.014213
3958.000000	5.019630
3956.000000	5.026234
3954.000000	5.033468
3952.000000	5.038096
3950.000000	5.041552
3948.000000	5.049173
3946.000000	5.057249
3944.000000	5.063072
3942.000000	5.072103
3940.000000	5.083498
3938.000000	5.093115
3936.000000	5.098538
3934.000000	5.102010
3932.000000	5.109790
3930.000000	5.120766
3928.000000	5.129997
3926.000000	5.138068
3924.000000	5.145588
3922.000000	5.150595
3920.000000	5.154146
3918.000000	5.161980
3916.000000	5.177486
3914.000000	5.193575
3912.000000	5.204674
3910.000000	5.211642
3908.000000	5.208849
3906.000000	5.195972
3904.000000	5.189620
3902.000000	5.199784
3900.000000	5.222923
3898.000000	5.250346
3896.000000	5.266184
3894.000000	5.264026
3892.000000	5.265684
3890.000000	5.277448
3888.000000	5.277661
3886.000000	5.278299
3884.000000	5.292978
3882.000000	5.306111
3880.000000	5.319896
3878.000000	5.332760
3876.000000	5.336422
3874.000000	5.330242
3872.000000	5.317179
3870.000000	5.322864
3868.000000	5.344879
3866.000000	5.358043
3864.000000	5.371240
3862.000000	5.390652
3860.000000	5.402654
3858.000000	5.375904
3856.000000	5.310574
3854.000000	5.288427
3852.000000	5.346744
3850.000000	5.418450
3848.000000	5.453269
3846.000000	5.458159
3844.000000	5.453550
3842.000000	5.439974
3840.000000	5.414839
3838.000000	5.411860
3836.000000	5.443172
3834.000000	5.474803
3832.000000	5.495416
3830.000000	5.511120
3828.000000	5.520027
3826.000000	5.520433
3824.000000	5.504526
3822.000000	5.493277
3820.000000	5.497382
3818.000000	5.494091
3816.000000	5.510145
3814.000000	5.553209
3812.000000	5.577469
3810.000000	5.566968
3808.000000	5.551791
3806.000000	5.553743
3804.000000	5.542458
3802.000000	5.535524
3800.000000	5.564325
3798.000000	5.594017
3796.000000	5.613390
3794.000000	5.631095
3792.000000	5.641321
3790.000000	5.644798
3788.000000	5.645193
3786.000000	5.647704
3784.000000	5.652431
3782.000000	5.651876
3780.000000	5.652212
3778.000000	5.663007
3776.000000	5.672945
3774.000000	5.670521
3772.000000	5.660112
3770.000000	5.657094
3768.000000	5.663570
3766.000000	5.674930
3764.000000	5.684686
3762.000000	5.682445
3760.000000	5.678686
3758.000000	5.684020
3756.000000	5.672678
3754.000000	5.629559
3752.000000	5.594308
3750.000000	5.601781
3748.000000	5.609010
3746.000000	5.591590
3744.000000	5.620654
3742.000000	5.683249
3740.000000	5.700132
3738.000000	5.679245
3736.000000	5.668122
3734.000000	5.678824
3732.000000	5.703535
3730.000000	5.727652
3728.000000	5.734125
3726.000000	5.734544
3724.000000	5.738392
3722.000000	5.744893
3720.000000	5.753717
3718.000000	5.758073
3716.000000	5.743165
3714.000000	5.711079
3712.000000	5.697113
3710.000000	5.712128
3708.000000	5.731390
3706.000000	5.738536
3704.000000	5.729871
3702.000000	5.719581
3700.000000	5.719987
3698.000000	5.721756
3696.000000	5.713276
3694.000000	5.687226
3692.000000	5.642934
3690.000000	5.605492
3688.000000	5.610448
3686.000000	5.636265
3684.000000	5.640300
3682.000000	5.621425
3680.000000	5.581567
3678.000000	5.520537
3676.000000	5.482371
3674.000000	5.473084
3672.000000	5.451282
3670.000000	5.441987
3668.000000	5.454585
3666.000000	5.456755
3664.000000	5.441381
3662.000000	5.417754
3660.000000	5.385082
3658.000000	5.344692
3656.000000	5.318508
3654.000000	5.292009
3652.000000	5.239696
3650.000000	5.198452
3648.000000	5.199976
3646.000000	5.216346
3644.000000	5.214780
3642.000000	5.200217
3640.000000	5.183853
3638.000000	5.164755
3636.000000	5.142672
3634.000000	5.115803
3632.000000	5.071878
3630.000000	5.034651
3628.000000	5.041145
3626.000000	5.060170
3624.000000	5.054849
3622.000000	5.028663
3620.000000	5.006439
3618.000000	5.000847
3616.000000	4.995015
3614.000000	4.982044
3612.000000	4.967478
3610.000000	4.955246
3608.000000	4.954232
3606.000000	4.959600
3604.000000	4.958639
3602.000000	4.949932
3600.000000	4.938788
3598.000000	4.928338
3596.000000	4.919894
3594.000000	4.914520
3592.000000	4.904429
3590.000000	4.886407
3588.000000	4.876991
3586.000000	4.882757
3584.000000	4.888975
3582.000000	4.888318
3580.000000	4.884091
3578.000000	4.879628
3576.000000	4.875817
3574.000000	4.872073
3572.000000	4.862659
3570.000000	4.846402
3568.000000	4.835692
3566.000000	4.837627
3564.000000	4.844142
3562.000000	4.846568
3560.000000	4.845147
3558.000000	4.842701
3556.000000	4.838624
3554.000000	4.833812
3552.000000	4.831549
3550.000000	4.826909
3548.000000	4.819636
3546.000000	4.817831
3544.000000	4.819707
3542.000000	4.819845
3540.000000	4.817551
3538.000000	4.812975
3536.000000	4.809490
3534.000000	4.808151
3532.000000	4.804945
3530.000000	4.797810
3528.000000	4.790508
3526.000000	4.787037
3524.000000	4.784498
3522.000000	4.781803
3520.000000	4.779742
3518.000000	4.776494
3516.000000	4.772229
3514.000000	4.767448
3512.000000	4.761103
3510.000000	4.754857
3508.000000	4.750876
3506.000000	4.745423
3504.000000	4.738016
3502.000000	4.734748
3500.000000	4.733529
3498.000000	4.728341
3496.000000	4.721237
3494.000000	4.716783
3492.000000	4.712933
3490.000000	4.707202
3488.000000	4.702011
3486.000000	4.697161
3484.000000	4.691752
3482.000000	4.688152
3480.000000	4.686029
3478.000000	4.683624
3476.000000	4.681747
3474.000000	4.680977
3472.000000	4.680087
3470.000000	4.678414
3468.000000	4.677149
3466.000000	4.677022
3464.000000	4.677028
3462.000000	4.677821
3460.000000	4.679276
3458.000000	4.680187
3456.000000	4.679114
3454.000000	4.677680
3452.000000	4.678218
3450.000000	4.678199
3448.000000	4.677283
3446.000000	4.677099
3444.000000	4.676808
3442.000000	4.678467
3440.000000	4.681413
3438.000000	4.684964
3436.000000	4.691233
3434.000000	4.696287
3432.000000	4.700270
3430.000000	4.707071
3428.000000	4.715252
3426.000000	4.722363
3424.000000	4.727802
3422.000000	4.732121
3420.000000	4.736735
3418.000000	4.740279
3416.000000	4.742658
3414.000000	4.747152
3412.000000	4.752415
3410.000000	4.756467
3408.000000	4.758235
3406.000000	4.758707
3404.000000	4.760491
3402.000000	4.763143
3400.000000	4.765099
3398.000000	4.767082
3396.000000	4.770463
3394.000000	4.775017
3392.000000	4.779458
3390.000000	4.782542
3388.000000	4.785064
3386.000000	4.788319
3384.000000	4.791933
3382.000000	4.795285
3380.000000	4.798349
3378.000000	4.800012
3376.000000	4.801293
3374.000000	4.804146
3372.000000	4.806231
3370.000000	4.808524
3368.000000	4.811496
3366.000000	4.812805
3364.000000	4.813662
3362.000000	4.817431
3360.000000	4.822002
3358.000000	4.823632
3356.000000	4.824684
3354.000000	4.825904
3352.000000	4.829056
3350.000000	4.833922
3348.000000	4.836348
3346.000000	4.836902
3344.000000	4.837192
3342.000000	4.838779
3340.000000	4.841996
3338.000000	4.844478
3336.000000	4.846234
3334.000000	4.847988
3332.000000	4.850296
3330.000000	4.852947
3328.000000	4.855671
3326.000000	4.858710
3324.000000	4.860895
3322.000000	4.861975
3320.000000	4.863756
3318.000000	4.867122
3316.000000	4.869004
3314.000000	4.868910
3312.000000	4.871038
3310.000000	4.873026
3308.000000	4.873256
3306.000000	4.874104
3304.000000	4.876408
3302.000000	4.878748
3300.000000	4.879775
3298.000000	4.881374
3296.000000	4.883880
3294.000000	4.883955
3292.000000	4.882511
3290.000000	4.883829
3288.000000	4.888443
3286.000000	4.893159
3284.000000	4.894784
3282.000000	4.895511
3280.000000	4.896590
3278.000000	4.897927
3276.000000	4.900155
3274.000000	4.901380
3272.000000	4.902324
3270.000000	4.903488
3268.000000	4.906078
3266.000000	4.909851
3264.000000	4.912768
3262.000000	4.915404
3260.000000	4.918149
3258.000000	4.920601
3256.000000	4.922047
3254.000000	4.922108
3252.000000	4.923930
3250.000000	4.926312
3248.000000	4.927705
3246.000000	4.930434
3244.000000	4.934838
3242.000000	4.938347
3240.000000	4.939719
3238.000000	4.941165
3236.000000	4.944106
3234.000000	4.947588
3232.000000	4.950738
3230.000000	4.954443
3228.000000	4.956714
3226.000000	4.957662
3224.000000	4.959194
3222.000000	4.961365
3220.000000	4.964194
3218.000000	4.966570
3216.000000	4.969049
3214.000000	4.972586
3212.000000	4.975935
3210.000000	4.979484
3208.000000	4.982737
3206.000000	4.986029
3204.000000	4.991590
3202.000000	4.995349
3200.000000	4.997615
3198.000000	5.002766
3196.000000	5.009396
3194.000000	5.012450
3192.000000	5.015095
3190.000000	5.020275
3188.000000	5.024245
3186.000000	5.027132
3184.000000	5.032567
3182.000000	5.037735
3180.000000	5.040742
3178.000000	5.045448
3176.000000	5.052368
3174.000000	5.057153
3172.000000	5.060767
3170.000000	5.065298
3168.000000	5.069459
3166.000000	5.073148
3164.000000	5.078683
3162.000000	5.083949
3160.000000	5.088447
3158.000000	5.093829
3156.000000	5.097347
3154.000000	5.100811
3152.000000	5.105410
3150.000000	5.110277
3148.000000	5.116080
3146.000000	5.120581
3144.000000	5.125157
3142.000000	5.131198
3140.000000	5.136918
3138.000000	5.141441
3136.000000	5.145004
3134.000000	5.148271
3132.000000	5.151426
3130.000000	5.155406
3128.000000	5.159036
3126.000000	5.162562
3124.000000	5.166139
3122.000000	5.168965
3120.000000	5.171067
3118.000000	5.174653
3116.000000	5.178676
3114.000000	5.180814
3112.000000	5.184086
3110.000000	5.189465
3108.000000	5.192934
3106.000000	5.193987
3104.000000	5.196298
3102.000000	5.200372
3100.000000	5.204872
3098.000000	5.209686
3096.000000	5.213769
3094.000000	5.217831
3092.000000	5.223208
3090.000000	5.227037
3088.000000	5.230902
3086.000000	5.236216
3084.000000	5.238610
3082.000000	5.239137
3080.000000	5.240985
3078.000000	5.244250
3076.000000	5.247048
3074.000000	5.248856
3072.000000	5.250434
3070.000000	5.251516
3068.000000	5.251996
3066.000000	5.254148
3064.000000	5.258944
3062.000000	5.264419
3060.000000	5.268093
3058.000000	5.270843
3056.000000	5.274532
3054.000000	5.279160
3052.000000	5.284627
3050.000000	5.288960
3048.000000	5.293339
3046.000000	5.297680
3044.000000	5.300469
3042.000000	5.303926
3040.000000	5.308626
3038.000000	5.311612
3036.000000	5.311968
3034.000000	5.312190
3032.000000	5.313365
3030.000000	5.312904
3028.000000	5.309411
3026.000000	5.304956
3024.000000	5.300365
3022.000000	5.296832
3020.000000	5.295419
3018.000000	5.299425
3016.000000	5.311027
3014.000000	5.328944
3012.000000	5.349345
3010.000000	5.367809
3008.000000	5.384073
3006.000000	5.397827
3004.000000	5.408588
3002.000000	5.417313
3000.000000	5.423188
2998.000000	5.427347
2996.000000	5.431715
2994.000000	5.435093
2992.000000	5.437331
2990.000000	5.440004
2988.000000	5.444393
2986.000000	5.447361
2984.000000	5.447147
2982.000000	5.444659
2980.000000	5.440084
2978.000000	5.432761
2976.000000	5.421330
2974.000000	5.406068
2972.000000	5.385427
2970.000000	5.357567
2968.000000	5.326793
2966.000000	5.300450
2964.000000	5.286687
2962.000000	5.285872
2960.000000	5.296549
2958.000000	5.313978
2956.000000	5.333073
2954.000000	5.350225
2952.000000	5.363960
2950.000000	5.373568
2948.000000	5.375194
2946.000000	5.368099
2944.000000	5.353919
2942.000000	5.332394
2940.000000	5.307227
2938.000000	5.281478
2936.000000	5.258999
2934.000000	5.239832
2932.000000	5.220236
2930.000000	5.201815
2928.000000	5.189442
2926.000000	5.186582
2924.000000	5.200178
2922.000000	5.235006
2920.000000	5.283284
2918.000000	5.338073
2916.000000	5.394997
2914.000000	5.446749
2912.000000	5.491188
2910.000000	5.528056
2908.000000	5.557797
2906.000000	5.581226
2904.000000	5.603806
2902.000000	5.627807
2900.000000	5.649237
2898.000000	5.667948
2896.000000	5.684843
2894.000000	5.700560
2892.000000	5.718341
2890.000000	5.735941
2888.000000	5.750022
2886.000000	5.762128
2884.000000	5.772063
2882.000000	5.779240
2880.000000	5.782353
2878.000000	5.780972
2876.000000	5.776795
2874.000000	5.769305
2872.000000	5.756285
2870.000000	5.736408
2868.000000	5.710280
2866.000000	5.679811
2864.000000	5.651326
2862.000000	5.635701
2860.000000	5.639350
2858.000000	5.655347
2856.000000	5.677321
2854.000000	5.703618
2852.000000	5.734199
2850.000000	5.770669
2848.000000	5.812419
2846.000000	5.854579
2844.000000	5.891458
2842.000000	5.919984
2840.000000	5.942952
2838.000000	5.962783
2836.000000	5.979332
2834.000000	5.992001
2832.000000	6.004262
2830.000000	6.015611
2828.000000	6.026220
2826.000000	6.035408
2824.000000	6.042505
2822.000000	6.050645
2820.000000	6.060304
2818.000000	6.069521
2816.000000	6.077702
2814.000000	6.085364
2812.000000	6.091804
2810.000000	6.095473
2808.000000	6.098924
2806.000000	6.105005
2804.000000	6.111254
2802.000000	6.116155
2800.000000	6.121498
2798.000000	6.125671
2796.000000	6.130380
2794.000000	6.136511
2792.000000	6.141456
2790.000000	6.146149
2788.000000	6.153457
2786.000000	6.161718
2784.000000	6.168519
2782.000000	6.173856
2780.000000	6.180573
2778.000000	6.187448
2776.000000	6.192651
2774.000000	6.197796
2772.000000	6.204887
2770.000000	6.209659
2768.000000	6.212573
2766.000000	6.217802
2764.000000	6.222360
2762.000000	6.226493
2760.000000	6.231440
2758.000000	6.235155
2756.000000	6.239221
2754.000000	6.244768
2752.000000	6.249652
2750.000000	6.251953
2748.000000	6.253901
2746.000000	6.256837
2744.000000	6.259927
2742.000000	6.262306
2740.000000	6.265035
2738.000000	6.268873
2736.000000	6.271903
2734.000000	6.274587
2732.000000	6.277147
2730.000000	6.279229
2728.000000	6.281050
2726.000000	6.282942
2724.000000	6.286023
2722.000000	6.290996
2720.000000	6.295840
2718.000000	6.296522
2716.000000	6.296143
2714.000000	6.298335
2712.000000	6.300223
2710.000000	6.300623
2708.000000	6.302545
2706.000000	6.304487
2704.000000	6.305695
2702.000000	6.307654
2700.000000	6.311415
2698.000000	6.314941
2696.000000	6.316999
2694.000000	6.318861
2692.000000	6.321059
2690.000000	6.322890
2688.000000	6.325394
2686.000000	6.326812
2684.000000	6.328703
2682.000000	6.332155
2680.000000	6.333441
2678.000000	6.332493
2676.000000	6.332499
2674.000000	6.333353
2672.000000	6.334586
2670.000000	6.334979
2668.000000	6.335382
2666.000000	6.336101
2664.000000	6.336515
2662.000000	6.335630
2660.000000	6.334636
2658.000000	6.335312
2656.000000	6.337144
2654.000000	6.337559
2652.000000	6.338341
2650.000000	6.340573
2648.000000	6.340885
2646.000000	6.339774
2644.000000	6.338583
2642.000000	6.337945
2640.000000	6.338903
2638.000000	6.339858
2636.000000	6.339176
2634.000000	6.337931
2632.000000	6.336924
2630.000000	6.336530
2628.000000	6.336963
2626.000000	6.337426
2624.000000	6.335647
2622.000000	6.332094
2620.000000	6.331359
2618.000000	6.331681
2616.000000	6.331076
2614.000000	6.330180
2612.000000	6.328327
2610.000000	6.325734
2608.000000	6.324004
2606.000000	6.321779
2604.000000	6.319650
2602.000000	6.318195
2600.000000	6.315246
2598.000000	6.311916
2596.000000	6.309062
2594.000000	6.307323
2592.000000	6.306194
2590.000000	6.303899
2588.000000	6.302005
2586.000000	6.302226
2584.000000	6.303990
2582.000000	6.303953
2580.000000	6.302905
2578.000000	6.303567
2576.000000	6.304719
2574.000000	6.302906
2572.000000	6.300380
2570.000000	6.300069
2568.000000	6.299496
2566.000000	6.297784
2564.000000	6.297575
2562.000000	6.296156
2560.000000	6.292626
2558.000000	6.289211
2556.000000	6.284831
2554.000000	6.282823
2552.000000	6.282616
2550.000000	6.280126
2548.000000	6.276667
2546.000000	6.272920
2544.000000	6.268971
2542.000000	6.264750
2540.000000	6.261405
2538.000000	6.258070
2536.000000	6.254010
2534.000000	6.249036
2532.000000	6.245471
2530.000000	6.243682
2528.000000	6.242043
2526.000000	6.239731
2524.000000	6.235296
2522.000000	6.230281
2520.000000	6.227298
2518.000000	6.223883
2516.000000	6.219769
2514.000000	6.216072
2512.000000	6.212798
2510.000000	6.208057
2508.000000	6.203901
2506.000000	6.202035
2504.000000	6.200783
2502.000000	6.197311
2500.000000	6.192247
2498.000000	6.187744
2496.000000	6.185102
2494.000000	6.183171
2492.000000	6.181071
2490.000000	6.178965
2488.000000	6.177004
2486.000000	6.175682
2484.000000	6.173487
2482.000000	6.171611
2480.000000	6.169833
2478.000000	6.168317
2476.000000	6.167671
2474.000000	6.165313
2472.000000	6.163215
2470.000000	6.161346
2468.000000	6.160361
2466.000000	6.158814
2464.000000	6.156482
2462.000000	6.155100
2460.000000	6.154646
2458.000000	6.154792
2456.000000	6.155275
2454.000000	6.154686
2452.000000	6.153873
2450.000000	6.152198
2448.000000	6.151763
2446.000000	6.152451
2444.000000	6.154222
2442.000000	6.157083
2440.000000	6.160154
2438.000000	6.160515
2436.000000	6.160219
2434.000000	6.161521
2432.000000	6.162950
2430.000000	6.165632
2428.000000	6.168559
2426.000000	6.170429
2424.000000	6.172629
2422.000000	6.174119
2420.000000	6.177971
2418.000000	6.183410
2416.000000	6.186038
2414.000000	6.188207
2412.000000	6.190719
2410.000000	6.193660
2408.000000	6.197622
2406.000000	6.201407
2404.000000	6.204564
2402.000000	6.207024
2400.000000	6.208814
2398.000000	6.211199
2396.000000	6.213326
2394.000000	6.215891
2392.000000	6.220077
2390.000000	6.222736
2388.000000	6.224629
2386.000000	6.224258
2384.000000	6.223330
2382.000000	6.220969
2380.000000	6.214319
2378.000000	6.203216
2376.000000	6.188217
2374.000000	6.171864
2372.000000	6.152923
2370.000000	6.131581
2368.000000	6.113353
2366.000000	6.099849
2364.000000	6.091282
2362.000000	6.087248
2360.000000	6.089137
2358.000000	6.099093
2356.000000	6.115006
2354.000000	6.134311
2352.000000	6.154083
2350.000000	6.164787
2348.000000	6.158330
2346.000000	6.137936
2344.000000	6.111330
2342.000000	6.087156
2340.000000	6.074335
2338.000000	6.077636
2336.000000	6.089596
2334.000000	6.098923
2332.000000	6.105966
2330.000000	6.113580
2328.000000	6.122169
2326.000000	6.130513
2324.000000	6.137010
2322.000000	6.144807
2320.000000	6.152643
2318.000000	6.156668
2316.000000	6.160828
2314.000000	6.166086
2312.000000	6.170030
2310.000000	6.172291
2308.000000	6.175329
2306.000000	6.176352
2304.000000	6.176003
2302.000000	6.175748
2300.000000	6.177454
2298.000000	6.178907
2296.000000	6.178138
2294.000000	6.175586
2292.000000	6.173119
2290.000000	6.173419
2288.000000	6.173279
2286.000000	6.171702
2284.000000	6.170061
2282.000000	6.167558
2280.000000	6.166115
2278.000000	6.165200
2276.000000	6.163726
2274.000000	6.161087
2272.000000	6.158705
2270.000000	6.157833
2268.000000	6.156886
2266.000000	6.155733
2264.000000	6.153581
2262.000000	6.150120
2260.000000	6.148723
2258.000000	6.148934
2256.000000	6.148705
2254.000000	6.148114
2252.000000	6.147081
2250.000000	6.144644
2248.000000	6.143688
2246.000000	6.143920
2244.000000	6.144378
2242.000000	6.143277
2240.000000	6.142372
2238.000000	6.141603
2236.000000	6.141114
2234.000000	6.141582
2232.000000	6.141719
2230.000000	6.141819
2228.000000	6.141456
2226.000000	6.139923
2224.000000	6.140413
2222.000000	6.142062
2220.000000	6.142343
2218.000000	6.141912
2216.000000	6.141548
2214.000000	6.142076
2212.000000	6.143224
2210.000000	6.143303
2208.000000	6.141686
2206.000000	6.140861
2204.000000	6.142899
2202.000000	6.143441
2200.000000	6.143618
2198.000000	6.145322
2196.000000	6.145738
2194.000000	6.145431
2192.000000	6.147837
2190.000000	6.148323
2188.000000	6.147367
2186.000000	6.147262
2184.000000	6.148708
2182.000000	6.150333
2180.000000	6.149821
2178.000000	6.149851
2176.000000	6.151949
2174.000000	6.153036
2172.000000	6.152703
2170.000000	6.152649
2168.000000	6.156610
2166.000000	6.160444
2164.000000	6.161591
2162.000000	6.161119
2160.000000	6.161447
2158.000000	6.165128
2156.000000	6.168387
2154.000000	6.169355
2152.000000	6.169923
2150.000000	6.170331
2148.000000	6.173326
2146.000000	6.176681
2144.000000	6.179450
2142.000000	6.182418
2140.000000	6.185640
2138.000000	6.187808
2136.000000	6.189937
2134.000000	6.193181
2132.000000	6.196154
2130.000000	6.198697
2128.000000	6.201351
2126.000000	6.204245
2124.000000	6.207905
2122.000000	6.211844
2120.000000	6.216248
2118.000000	6.220404
2116.000000	6.224523
2114.000000	6.228918
2112.000000	6.234547
2110.000000	6.238944
2108.000000	6.243879
2106.000000	6.249415
2104.000000	6.253911
2102.000000	6.258857
2100.000000	6.261972
2098.000000	6.264876
2096.000000	6.270953
2094.000000	6.276821
2092.000000	6.283172
2090.000000	6.288127
2088.000000	6.291689
2086.000000	6.297353
2084.000000	6.306325
2082.000000	6.314649
2080.000000	6.320413
2078.000000	6.324373
2076.000000	6.329565
2074.000000	6.336690
2072.000000	6.343343
2070.000000	6.349771
2068.000000	6.355759
2066.000000	6.361391
2064.000000	6.368272
2062.000000	6.374737
2060.000000	6.380510
2058.000000	6.387040
2056.000000	6.394102
2054.000000	6.398872
2052.000000	6.405910
2050.000000	6.414207
2048.000000	6.421186
2046.000000	6.426931
2044.000000	6.432777
2042.000000	6.437975
2040.000000	6.444103
2038.000000	6.451284
2036.000000	6.457794
2034.000000	6.463020
2032.000000	6.467666
2030.000000	6.471321
2028.000000	6.476015
2026.000000	6.482046
2024.000000	6.489098
2022.000000	6.494212
2020.000000	6.498571
2018.000000	6.503166
2016.000000	6.508435
2014.000000	6.514778
2012.000000	6.521658
2010.000000	6.527472
2008.000000	6.531890
2006.000000	6.536708
2004.000000	6.541430
2002.000000	6.545401
2000.000000	6.550842
1998.000000	6.555233
1996.000000	6.558690
1994.000000	6.559618
1992.000000	6.560280
1990.000000	6.564087
1988.000000	6.569107
1986.000000	6.573149
1984.000000	6.575794
1982.000000	6.577052
1980.000000	6.579472
1978.000000	6.581966
1976.000000	6.583133
1974.000000	6.583682
1972.000000	6.585352
1970.000000	6.585069
1968.000000	6.582525
1966.000000	6.583540
1964.000000	6.587031
1962.000000	6.584926
1960.000000	6.577185
1958.000000	6.577628
1956.000000	6.584771
1954.000000	6.587748
1952.000000	6.587969
1950.000000	6.587061
1948.000000	6.586565
1946.000000	6.584761
1944.000000	6.579873
1942.000000	6.579216
1940.000000	6.585241
1938.000000	6.586389
1936.000000	6.585019
1934.000000	6.583166
1932.000000	6.582269
1930.000000	6.580255
1928.000000	6.579827
1926.000000	6.576369
1924.000000	6.568606
1922.000000	6.565519
1920.000000	6.559549
1918.000000	6.553301
1916.000000	6.559309
1914.000000	6.561022
1912.000000	6.556444
1910.000000	6.551280
1908.000000	6.548820
1906.000000	6.543765
1904.000000	6.540564
1902.000000	6.537811
1900.000000	6.533994
1898.000000	6.528747
1896.000000	6.523446
1894.000000	6.520258
1892.000000	6.513862
1890.000000	6.504296
1888.000000	6.507861
1886.000000	6.512096
1884.000000	6.509878
1882.000000	6.507067
1880.000000	6.505873
1878.000000	6.502656
1876.000000	6.499923
1874.000000	6.496413
1872.000000	6.484897
1870.000000	6.464576
1868.000000	6.463600
1866.000000	6.474824
1864.000000	6.479749
1862.000000	6.477806
1860.000000	6.473194
1858.000000	6.466392
1856.000000	6.462649
1854.000000	6.458238
1852.000000	6.452675
1850.000000	6.444520
1848.000000	6.431576
1846.000000	6.400777
1844.000000	6.387371
1842.000000	6.409148
1840.000000	6.417095
1838.000000	6.410692
1836.000000	6.405807
1834.000000	6.397228
1832.000000	6.374603
1830.000000	6.356767
1828.000000	6.357489
1826.000000	6.350101
1824.000000	6.349758
1822.000000	6.351327
1820.000000	6.343803
1818.000000	6.333612
1816.000000	6.326030
1814.000000	6.316035
1812.000000	6.301571
1810.000000	6.291092
1808.000000	6.286002
1806.000000	6.276251
1804.000000	6.259210
1802.000000	6.235774
1800.000000	6.223204
1798.000000	6.220223
1796.000000	6.204123
1794.000000	6.163565
1792.000000	6.147010
1790.000000	6.163006
1788.000000	6.163682
1786.000000	6.145278
1784.000000	6.132406
1782.000000	6.118685
1780.000000	6.105627
1778.000000	6.094525
1776.000000	6.067199
1774.000000	6.012709
1772.000000	5.990292
1770.000000	6.005827
1768.000000	6.010668
1766.000000	6.016287
1764.000000	5.996391
1762.000000	5.969735
1760.000000	5.967117
1758.000000	5.954786
1756.000000	5.942092
1754.000000	5.918477
1752.000000	5.870105
1750.000000	5.853692
1748.000000	5.859009
1746.000000	5.856225
1744.000000	5.840574
1742.000000	5.813209
1740.000000	5.790662
1738.000000	5.781757
1736.000000	5.718189
1734.000000	5.673976
1732.000000	5.725895
1730.000000	5.762446
1728.000000	5.767164
1726.000000	5.761337
1724.000000	5.752015
1722.000000	5.735854
1720.000000	5.676634
1718.000000	5.612772
1716.000000	5.634907
1714.000000	5.680965
1712.000000	5.699779
1710.000000	5.690891
1708.000000	5.668101
1706.000000	5.644929
1704.000000	5.629298
1702.000000	5.556983
1700.000000	5.522544
1698.000000	5.538394
1696.000000	5.536710
1694.000000	5.601437
1692.000000	5.642010
1690.000000	5.636055
1688.000000	5.601438
1686.000000	5.509727
1684.000000	5.494758
1682.000000	5.573224
1680.000000	5.607403
1678.000000	5.590122
1676.000000	5.553999
1674.000000	5.559280
1672.000000	5.555760
1670.000000	5.533764
1668.000000	5.552087
1666.000000	5.568310
1664.000000	5.547118
1662.000000	5.541138
1660.000000	5.552600
1658.000000	5.541270
1656.000000	5.457996
1654.000000	5.333403
1652.000000	5.370954
1650.000000	5.465980
1648.000000	5.444246
1646.000000	5.431509
1644.000000	5.474023
1642.000000	5.493028
1640.000000	5.475735
1638.000000	5.421616
1636.000000	5.373349
1634.000000	5.406660
1632.000000	5.440469
1630.000000	5.426795
1628.000000	5.403210
1626.000000	5.378634
1624.000000	5.343447
1622.000000	5.329478
1620.000000	5.302696
1618.000000	5.231008
1616.000000	5.211444
1614.000000	5.232796
1612.000000	5.207573
1610.000000	5.171777
1608.000000	5.156276
1606.000000	5.161698
1604.000000	5.174494
1602.000000	5.189175
1600.000000	5.203407
1598.000000	5.215467
1596.000000	5.223616
1594.000000	5.230793
1592.000000	5.234438
1590.000000	5.233959
1588.000000	5.231389
1586.000000	5.227014
1584.000000	5.222639
1582.000000	5.220618
1580.000000	5.207032
1578.000000	5.151507
1576.000000	5.126329
1574.000000	5.178431
1572.000000	5.183097
1570.000000	5.155835
1568.000000	5.162920
1566.000000	5.165752
1564.000000	5.142618
1562.000000	5.061057
1560.000000	4.951378
1558.000000	4.973485
1556.000000	5.054166
1554.000000	5.097480
1552.000000	5.132065
1550.000000	5.150653
1548.000000	5.158991
1546.000000	5.146339
1544.000000	5.118767
1542.000000	5.070163
1540.000000	5.053520
1538.000000	5.137300
1536.000000	5.201347
1534.000000	5.200026
1532.000000	5.221904
1530.000000	5.237728
1528.000000	5.224110
1526.000000	5.206740
1524.000000	5.180925
1522.000000	5.140345
1520.000000	5.155529
1518.000000	5.175115
1516.000000	5.175614
1514.000000	5.175133
1512.000000	5.161449
1510.000000	5.121447
1508.000000	5.032503
1506.000000	5.001561
1504.000000	5.036885
1502.000000	4.987719
1500.000000	4.829255
1498.000000	4.626240
1496.000000	4.492245
1494.000000	4.492170
1492.000000	4.562756
1490.000000	4.665662
1488.000000	4.781320
1486.000000	4.876763
1484.000000	4.938324
1482.000000	4.965888
1480.000000	4.977403
1478.000000	4.967090
1476.000000	4.939650
1474.000000	4.902272
1472.000000	4.897003
1470.000000	4.921568
1468.000000	4.912844
1466.000000	4.873740
1464.000000	4.855458
1462.000000	4.842128
1460.000000	4.771124
1458.000000	4.658404
1456.000000	4.610291
1454.000000	4.606407
1452.000000	4.583952
1450.000000	4.594895
1448.000000	4.647745
1446.000000	4.705960
1444.000000	4.732130
1442.000000	4.737193
1440.000000	4.725171
1438.000000	4.692381
1436.000000	4.696284
1434.000000	4.733223
1432.000000	4.738593
1430.000000	4.734365
1428.000000	4.738631
1426.000000	4.739439
1424.000000	4.733237
1422.000000	4.714220
1420.000000	4.677715
1418.000000	4.683183
1416.000000	4.701823
1414.000000	4.695453
1412.000000	4.673360
1410.000000	4.640743
1408.000000	4.594295
1406.000000	4.547659
1404.000000	4.527113
1402.000000	4.531126
1400.000000	4.541852
1398.000000	4.567491
1396.000000	4.587965
1394.000000	4.610277
1392.000000	4.634711
1390.000000	4.631546
1388.000000	4.608419
1386.000000	4.596483
1384.000000	4.597408
1382.000000	4.606622
1380.000000	4.611108
1378.000000	4.605997
1376.000000	4.595311
1374.000000	4.588770
1372.000000	4.589954
1370.000000	4.586336
1368.000000	4.576972
1366.000000	4.566469
1364.000000	4.550973
1362.000000	4.540740
1360.000000	4.537604
1358.000000	4.532158
1356.000000	4.521435
1354.000000	4.510865
1352.000000	4.500552
1350.000000	4.489256
1348.000000	4.477069
1346.000000	4.463072
1344.000000	4.447770
1342.000000	4.430915
1340.000000	4.414538
1338.000000	4.406457
1336.000000	4.403750
1334.000000	4.399670
1332.000000	4.390569
1330.000000	4.378121
1328.000000	4.363958
1326.000000	4.349641
1324.000000	4.333873
1322.000000	4.317563
1320.000000	4.299941
1318.000000	4.282391
1316.000000	4.265304
1314.000000	4.246860
1312.000000	4.227318
1310.000000	4.208810
1308.000000	4.190961
1306.000000	4.174157
1304.000000	4.154853
1302.000000	4.133473
1300.000000	4.112796
1298.000000	4.091720
1296.000000	4.070041
1294.000000	4.049293
1292.000000	4.026697
1290.000000	4.001426
1288.000000	3.975445
1286.000000	3.952055
1284.000000	3.930232
1282.000000	3.904415
1280.000000	3.875572
1278.000000	3.847484
1276.000000	3.814582
1274.000000	3.775056
1272.000000	3.731481
1270.000000	3.677734
1268.000000	3.606127
1266.000000	3.520738
1264.000000	3.433564
1262.000000	3.365994
1260.000000	3.335186
1258.000000	3.341111
1256.000000	3.364263
1254.000000	3.383918
1252.000000	3.387316
1250.000000	3.374617
1248.000000	3.352499
1246.000000	3.325220
1244.000000	3.295039
1242.000000	3.264291
1240.000000	3.234945
1238.000000	3.205874
1236.000000	3.178166
1234.000000	3.152143
1232.000000	3.124843
1230.000000	3.098660
1228.000000	3.074015
1226.000000	3.047708
1224.000000	3.020273
1222.000000	2.991903
1220.000000	2.961692
1218.000000	2.930996
1216.000000	2.901651
1214.000000	2.870982
1212.000000	2.840199
1210.000000	2.814820
1208.000000	2.793670
1206.000000	2.771741
1204.000000	2.747508
1202.000000	2.723405
1200.000000	2.700455
1198.000000	2.675910
1196.000000	2.650110
1194.000000	2.628085
1192.000000	2.605644
1190.000000	2.579211
1188.000000	2.551317
1186.000000	2.523324
1184.000000	2.487291
1182.000000	2.443017
1180.000000	2.411474
1178.000000	2.397269
1176.000000	2.380597
1174.000000	2.358259
1172.000000	2.332985
1170.000000	2.306709
1168.000000	2.277902
1166.000000	2.248441
1164.000000	2.220273
1162.000000	2.194914
1160.000000	2.168996
1158.000000	2.143320
1156.000000	2.119219
1154.000000	2.093105
1152.000000	2.065812
1150.000000	2.040412
1148.000000	2.016723
1146.000000	1.992723
1144.000000	1.967833
1142.000000	1.945652
1140.000000	1.926515
1138.000000	1.907307
1136.000000	1.885667
1134.000000	1.863095
1132.000000	1.838780
1130.000000	1.813599
1128.000000	1.790365
1126.000000	1.767379
1124.000000	1.741352
1122.000000	1.713489
1120.000000	1.685351
1118.000000	1.658030
1116.000000	1.629583
1114.000000	1.600592
1112.000000	1.572394
1110.000000	1.545327
1108.000000	1.519498
1106.000000	1.493633
1104.000000	1.468372
1102.000000	1.443335
1100.000000	1.417245
1098.000000	1.392225
1096.000000	1.368419
1094.000000	1.345117
1092.000000	1.324500
1090.000000	1.305659
1088.000000	1.285631
1086.000000	1.266847
1084.000000	1.246484
1082.000000	1.224435
1080.000000	1.204432
1078.000000	1.187757
1076.000000	1.173700
1074.000000	1.161215
1072.000000	1.149651
1070.000000	1.136639
1068.000000	1.123113
1066.000000	1.110361
1064.000000	1.097180
1062.000000	1.085211
1060.000000	1.072507
1058.000000	1.055344
1056.000000	1.031216
1054.000000	1.002492
1052.000000	0.974705
1050.000000	0.958949
1048.000000	0.958892
1046.000000	0.964697
1044.000000	0.965324
1042.000000	0.959228
1040.000000	0.947452
1038.000000	0.934189
1036.000000	0.921338
1034.000000	0.908420
1032.000000	0.893344
1030.000000	0.878662
1028.000000	0.862050
1026.000000	0.844218
1024.000000	0.829312
1022.000000	0.815354
1020.000000	0.799221
1018.000000	0.784550
1016.000000	0.771877
1014.000000	0.761110
1012.000000	0.751864
1010.000000	0.744581
1008.000000	0.735180
1006.000000	0.723508
1004.000000	0.711856
1002.000000	0.698976
1000.000000	0.684007
