PE IR       SUBTECH     SPECTRUM    ASCII       PEDS        4.00        
   -1
TE110A_024_80K_AFTER_100K.ASC
20/05/14
12:25:30.00
20/05/14
12:25:47.00
Administrator
TE110A.Thursday, May 14 2020, 007.
1000.000000
#HDR
-1
-1
#GR
cm-1
A
1.0
0.0
6000.000000
-2.000000
2501
8
1.304316
1.251661
#DATA
6000.000000	1.288767
5998.000000	1.288502
5996.000000	1.288385
5994.000000	1.288677
5992.000000	1.289320
5990.000000	1.289560
5988.000000	1.289405
5986.000000	1.288818
5984.000000	1.288659
5982.000000	1.288864
5980.000000	1.289152
5978.000000	1.289627
5976.000000	1.289474
5974.000000	1.288693
5972.000000	1.287994
5970.000000	1.288218
5968.000000	1.288977
5966.000000	1.289464
5964.000000	1.289482
5962.000000	1.289265
5960.000000	1.289065
5958.000000	1.288342
5956.000000	1.287846
5954.000000	1.287878
5952.000000	1.288480
5950.000000	1.288800
5948.000000	1.288918
5946.000000	1.288816
5944.000000	1.288856
5942.000000	1.289295
5940.000000	1.289799
5938.000000	1.289802
5936.000000	1.289365
5934.000000	1.288536
5932.000000	1.288120
5930.000000	1.288010
5928.000000	1.287777
5926.000000	1.287515
5924.000000	1.287448
5922.000000	1.287575
5920.000000	1.287936
5918.000000	1.288280
5916.000000	1.288130
5914.000000	1.288051
5912.000000	1.288097
5910.000000	1.288373
5908.000000	1.288550
5906.000000	1.288191
5904.000000	1.287604
5902.000000	1.287612
5900.000000	1.287701
5898.000000	1.287622
5896.000000	1.287407
5894.000000	1.287392
5892.000000	1.287523
5890.000000	1.287747
5888.000000	1.287603
5886.000000	1.287212
5884.000000	1.287221
5882.000000	1.287606
5880.000000	1.288005
5878.000000	1.287506
5876.000000	1.286990
5874.000000	1.286938
5872.000000	1.287410
5870.000000	1.287332
5868.000000	1.286823
5866.000000	1.286685
5864.000000	1.286633
5862.000000	1.286470
5860.000000	1.286215
5858.000000	1.285874
5856.000000	1.285749
5854.000000	1.285592
5852.000000	1.285711
5850.000000	1.286139
5848.000000	1.286366
5846.000000	1.286268
5844.000000	1.286384
5842.000000	1.286527
5840.000000	1.286567
5838.000000	1.286177
5836.000000	1.285741
5834.000000	1.285801
5832.000000	1.285865
5830.000000	1.285884
5828.000000	1.285665
5826.000000	1.286034
5824.000000	1.286451
5822.000000	1.286736
5820.000000	1.286647
5818.000000	1.286277
5816.000000	1.286189
5814.000000	1.286244
5812.000000	1.286265
5810.000000	1.286519
5808.000000	1.286379
5806.000000	1.286554
5804.000000	1.286400
5802.000000	1.285752
5800.000000	1.285437
5798.000000	1.284975
5796.000000	1.284996
5794.000000	1.285125
5792.000000	1.285342
5790.000000	1.285613
5788.000000	1.285624
5786.000000	1.285514
5784.000000	1.285092
5782.000000	1.284638
5780.000000	1.284720
5778.000000	1.285284
5776.000000	1.285709
5774.000000	1.285554
5772.000000	1.285333
5770.000000	1.285488
5768.000000	1.285593
5766.000000	1.285580
5764.000000	1.285726
5762.000000	1.285684
5760.000000	1.285388
5758.000000	1.284997
5756.000000	1.284785
5754.000000	1.284926
5752.000000	1.284861
5750.000000	1.284872
5748.000000	1.284758
5746.000000	1.284745
5744.000000	1.284661
5742.000000	1.284594
5740.000000	1.284712
5738.000000	1.284843
5736.000000	1.284679
5734.000000	1.284208
5732.000000	1.283884
5730.000000	1.284347
5728.000000	1.284863
5726.000000	1.284475
5724.000000	1.283700
5722.000000	1.283524
5720.000000	1.283818
5718.000000	1.284252
5716.000000	1.284256
5714.000000	1.284108
5712.000000	1.283861
5710.000000	1.283580
5708.000000	1.283582
5706.000000	1.283707
5704.000000	1.283792
5702.000000	1.283646
5700.000000	1.283515
5698.000000	1.283714
5696.000000	1.284056
5694.000000	1.284344
5692.000000	1.284284
5690.000000	1.284242
5688.000000	1.284053
5686.000000	1.283688
5684.000000	1.283430
5682.000000	1.283466
5680.000000	1.283680
5678.000000	1.283790
5676.000000	1.283632
5674.000000	1.283542
5672.000000	1.283473
5670.000000	1.283320
5668.000000	1.283170
5666.000000	1.283127
5664.000000	1.283425
5662.000000	1.283662
5660.000000	1.283517
5658.000000	1.282744
5656.000000	1.282032
5654.000000	1.281972
5652.000000	1.282237
5650.000000	1.282643
5648.000000	1.282983
5646.000000	1.283245
5644.000000	1.283391
5642.000000	1.283108
5640.000000	1.283088
5638.000000	1.283055
5636.000000	1.282927
5634.000000	1.282522
5632.000000	1.282393
5630.000000	1.282613
5628.000000	1.282904
5626.000000	1.283188
5624.000000	1.283153
5622.000000	1.282943
5620.000000	1.282540
5618.000000	1.282353
5616.000000	1.282454
5614.000000	1.282721
5612.000000	1.282727
5610.000000	1.282549
5608.000000	1.282473
5606.000000	1.282579
5604.000000	1.282678
5602.000000	1.282562
5600.000000	1.282406
5598.000000	1.282288
5596.000000	1.282151
5594.000000	1.282090
5592.000000	1.282184
5590.000000	1.282207
5588.000000	1.282109
5586.000000	1.282222
5584.000000	1.282610
5582.000000	1.282769
5580.000000	1.282417
5578.000000	1.281902
5576.000000	1.281769
5574.000000	1.281844
5572.000000	1.281869
5570.000000	1.281580
5568.000000	1.281465
5566.000000	1.281416
5564.000000	1.281281
5562.000000	1.281197
5560.000000	1.281284
5558.000000	1.281667
5556.000000	1.281921
5554.000000	1.282005
5552.000000	1.281969
5550.000000	1.281884
5548.000000	1.281606
5546.000000	1.281107
5544.000000	1.280666
5542.000000	1.280567
5540.000000	1.280836
5538.000000	1.281193
5536.000000	1.281371
5534.000000	1.281188
5532.000000	1.280909
5530.000000	1.280808
5528.000000	1.280934
5526.000000	1.281076
5524.000000	1.280902
5522.000000	1.280935
5520.000000	1.281034
5518.000000	1.280943
5516.000000	1.280914
5514.000000	1.281071
5512.000000	1.281133
5510.000000	1.280723
5508.000000	1.280309
5506.000000	1.280407
5504.000000	1.280583
5502.000000	1.280511
5500.000000	1.280405
5498.000000	1.280322
5496.000000	1.280100
5494.000000	1.279852
5492.000000	1.279914
5490.000000	1.280064
5488.000000	1.280360
5486.000000	1.280456
5484.000000	1.280525
5482.000000	1.280317
5480.000000	1.279963
5478.000000	1.279726
5476.000000	1.279635
5474.000000	1.279507
5472.000000	1.279304
5470.000000	1.279270
5468.000000	1.279595
5466.000000	1.279953
5464.000000	1.280038
5462.000000	1.280049
5460.000000	1.279865
5458.000000	1.279791
5456.000000	1.279803
5454.000000	1.279974
5452.000000	1.279957
5450.000000	1.279566
5448.000000	1.279409
5446.000000	1.279426
5444.000000	1.279447
5442.000000	1.279616
5440.000000	1.279560
5438.000000	1.279373
5436.000000	1.279162
5434.000000	1.279183
5432.000000	1.279130
5430.000000	1.278962
5428.000000	1.279325
5426.000000	1.279926
5424.000000	1.280064
5422.000000	1.279876
5420.000000	1.279839
5418.000000	1.279614
5416.000000	1.279018
5414.000000	1.278590
5412.000000	1.278802
5410.000000	1.279518
5408.000000	1.279793
5406.000000	1.279368
5404.000000	1.278899
5402.000000	1.279010
5400.000000	1.279277
5398.000000	1.278941
5396.000000	1.278430
5394.000000	1.278517
5392.000000	1.279014
5390.000000	1.279012
5388.000000	1.278713
5386.000000	1.278842
5384.000000	1.279295
5382.000000	1.279158
5380.000000	1.278293
5378.000000	1.277858
5376.000000	1.278258
5374.000000	1.278874
5372.000000	1.278916
5370.000000	1.278544
5368.000000	1.278251
5366.000000	1.278214
5364.000000	1.278323
5362.000000	1.278397
5360.000000	1.278247
5358.000000	1.277892
5356.000000	1.277407
5354.000000	1.277493
5352.000000	1.277932
5350.000000	1.278345
5348.000000	1.278118
5346.000000	1.277672
5344.000000	1.277869
5342.000000	1.278135
5340.000000	1.277952
5338.000000	1.277739
5336.000000	1.278100
5334.000000	1.278501
5332.000000	1.278081
5330.000000	1.277473
5328.000000	1.277688
5326.000000	1.278369
5324.000000	1.278836
5322.000000	1.278631
5320.000000	1.278143
5318.000000	1.277892
5316.000000	1.278030
5314.000000	1.278493
5312.000000	1.278489
5310.000000	1.278041
5308.000000	1.277960
5306.000000	1.278246
5304.000000	1.278358
5302.000000	1.277990
5300.000000	1.277595
5298.000000	1.277485
5296.000000	1.277672
5294.000000	1.277871
5292.000000	1.277675
5290.000000	1.277438
5288.000000	1.277434
5286.000000	1.277490
5284.000000	1.277512
5282.000000	1.277870
5280.000000	1.278171
5278.000000	1.277979
5276.000000	1.277562
5274.000000	1.277507
5272.000000	1.277634
5270.000000	1.277559
5268.000000	1.277257
5266.000000	1.276955
5264.000000	1.276963
5262.000000	1.277230
5260.000000	1.277466
5258.000000	1.277273
5256.000000	1.277013
5254.000000	1.277072
5252.000000	1.277114
5250.000000	1.277003
5248.000000	1.276927
5246.000000	1.277179
5244.000000	1.277591
5242.000000	1.277866
5240.000000	1.277818
5238.000000	1.277582
5236.000000	1.277219
5234.000000	1.276779
5232.000000	1.276691
5230.000000	1.276740
5228.000000	1.276792
5226.000000	1.276858
5224.000000	1.277333
5222.000000	1.277674
5220.000000	1.277376
5218.000000	1.276959
5216.000000	1.276827
5214.000000	1.276771
5212.000000	1.276694
5210.000000	1.276531
5208.000000	1.276547
5206.000000	1.276726
5204.000000	1.277077
5202.000000	1.277223
5200.000000	1.276927
5198.000000	1.276614
5196.000000	1.276699
5194.000000	1.277002
5192.000000	1.277003
5190.000000	1.276762
5188.000000	1.276570
5186.000000	1.276691
5184.000000	1.276974
5182.000000	1.277138
5180.000000	1.277000
5178.000000	1.276828
5176.000000	1.276789
5174.000000	1.276897
5172.000000	1.276996
5170.000000	1.276793
5168.000000	1.276486
5166.000000	1.276440
5164.000000	1.276674
5162.000000	1.276698
5160.000000	1.276694
5158.000000	1.276932
5156.000000	1.277049
5154.000000	1.276981
5152.000000	1.276905
5150.000000	1.276805
5148.000000	1.276611
5146.000000	1.276588
5144.000000	1.276899
5142.000000	1.277115
5140.000000	1.276934
5138.000000	1.276612
5136.000000	1.276511
5134.000000	1.276666
5132.000000	1.276979
5130.000000	1.277150
5128.000000	1.277109
5126.000000	1.276768
5124.000000	1.276628
5122.000000	1.276572
5120.000000	1.276531
5118.000000	1.276554
5116.000000	1.276793
5114.000000	1.276979
5112.000000	1.276895
5110.000000	1.276714
5108.000000	1.276926
5106.000000	1.277134
5104.000000	1.276846
5102.000000	1.276290
5100.000000	1.276247
5098.000000	1.276491
5096.000000	1.276510
5094.000000	1.276443
5092.000000	1.276535
5090.000000	1.276562
5088.000000	1.276422
5086.000000	1.276279
5084.000000	1.276152
5082.000000	1.276179
5080.000000	1.276342
5078.000000	1.276400
5076.000000	1.276328
5074.000000	1.276298
5072.000000	1.276423
5070.000000	1.276345
5068.000000	1.276192
5066.000000	1.276112
5064.000000	1.276244
5062.000000	1.276378
5060.000000	1.276355
5058.000000	1.276332
5056.000000	1.276407
5054.000000	1.276416
5052.000000	1.276316
5050.000000	1.276247
5048.000000	1.276189
5046.000000	1.276178
5044.000000	1.276305
5042.000000	1.276543
5040.000000	1.276849
5038.000000	1.276863
5036.000000	1.276471
5034.000000	1.276031
5032.000000	1.276118
5030.000000	1.276456
5028.000000	1.276506
5026.000000	1.276297
5024.000000	1.276182
5022.000000	1.276315
5020.000000	1.276531
5018.000000	1.276510
5016.000000	1.276289
5014.000000	1.276243
5012.000000	1.276499
5010.000000	1.276668
5008.000000	1.276513
5006.000000	1.276500
5004.000000	1.276591
5002.000000	1.276531
5000.000000	1.276305
4998.000000	1.276234
4996.000000	1.276362
4994.000000	1.276333
4992.000000	1.276108
4990.000000	1.276018
4988.000000	1.276071
4986.000000	1.276051
4984.000000	1.276012
4982.000000	1.276260
4980.000000	1.276473
4978.000000	1.276386
4976.000000	1.276240
4974.000000	1.276266
4972.000000	1.276358
4970.000000	1.276201
4968.000000	1.276047
4966.000000	1.276170
4964.000000	1.276376
4962.000000	1.276393
4960.000000	1.276470
4958.000000	1.276488
4956.000000	1.276332
4954.000000	1.276152
4952.000000	1.276074
4950.000000	1.275887
4948.000000	1.275863
4946.000000	1.276090
4944.000000	1.276266
4942.000000	1.276411
4940.000000	1.276550
4938.000000	1.276596
4936.000000	1.276526
4934.000000	1.276467
4932.000000	1.276420
4930.000000	1.276370
4928.000000	1.276364
4926.000000	1.276272
4924.000000	1.276136
4922.000000	1.275962
4920.000000	1.275995
4918.000000	1.276146
4916.000000	1.276217
4914.000000	1.276207
4912.000000	1.276337
4910.000000	1.276502
4908.000000	1.276518
4906.000000	1.276348
4904.000000	1.276168
4902.000000	1.276021
4900.000000	1.275894
4898.000000	1.275789
4896.000000	1.275877
4894.000000	1.276021
4892.000000	1.276054
4890.000000	1.276033
4888.000000	1.276056
4886.000000	1.276009
4884.000000	1.275952
4882.000000	1.276069
4880.000000	1.276223
4878.000000	1.276250
4876.000000	1.276272
4874.000000	1.276362
4872.000000	1.276402
4870.000000	1.276316
4868.000000	1.276247
4866.000000	1.276216
4864.000000	1.276084
4862.000000	1.275966
4860.000000	1.276083
4858.000000	1.276211
4856.000000	1.276212
4854.000000	1.276298
4852.000000	1.276467
4850.000000	1.276485
4848.000000	1.276268
4846.000000	1.276107
4844.000000	1.276077
4842.000000	1.276101
4840.000000	1.276159
4838.000000	1.276304
4836.000000	1.276272
4834.000000	1.276047
4832.000000	1.276005
4830.000000	1.276124
4828.000000	1.276109
4826.000000	1.276041
4824.000000	1.276029
4822.000000	1.275970
4820.000000	1.275777
4818.000000	1.275735
4816.000000	1.275826
4814.000000	1.275900
4812.000000	1.275912
4810.000000	1.275926
4808.000000	1.275907
4806.000000	1.275883
4804.000000	1.275823
4802.000000	1.275697
4800.000000	1.275593
4798.000000	1.275639
4796.000000	1.275841
4794.000000	1.275922
4792.000000	1.275772
4790.000000	1.275681
4788.000000	1.275782
4786.000000	1.275806
4784.000000	1.275755
4782.000000	1.275828
4780.000000	1.275986
4778.000000	1.276072
4776.000000	1.276083
4774.000000	1.276092
4772.000000	1.276078
4770.000000	1.276052
4768.000000	1.275963
4766.000000	1.275782
4764.000000	1.275695
4762.000000	1.275791
4760.000000	1.275825
4758.000000	1.275659
4756.000000	1.275566
4754.000000	1.275684
4752.000000	1.275801
4750.000000	1.275794
4748.000000	1.275645
4746.000000	1.275507
4744.000000	1.275363
4742.000000	1.275319
4740.000000	1.275437
4738.000000	1.275623
4736.000000	1.275628
4734.000000	1.275561
4732.000000	1.275608
4730.000000	1.275654
4728.000000	1.275605
4726.000000	1.275555
4724.000000	1.275628
4722.000000	1.275701
4720.000000	1.275647
4718.000000	1.275552
4716.000000	1.275513
4714.000000	1.275518
4712.000000	1.275470
4710.000000	1.275337
4708.000000	1.275400
4706.000000	1.275694
4704.000000	1.275845
4702.000000	1.275800
4700.000000	1.275672
4698.000000	1.275472
4696.000000	1.275353
4694.000000	1.275445
4692.000000	1.275534
4690.000000	1.275602
4688.000000	1.275631
4686.000000	1.275518
4684.000000	1.275264
4682.000000	1.275104
4680.000000	1.275176
4678.000000	1.275333
4676.000000	1.275449
4674.000000	1.275507
4672.000000	1.275550
4670.000000	1.275521
4668.000000	1.275446
4666.000000	1.275371
4664.000000	1.275420
4662.000000	1.275511
4660.000000	1.275525
4658.000000	1.275457
4656.000000	1.275463
4654.000000	1.275657
4652.000000	1.275791
4650.000000	1.275594
4648.000000	1.275471
4646.000000	1.275659
4644.000000	1.275692
4642.000000	1.275480
4640.000000	1.275436
4638.000000	1.275451
4636.000000	1.275351
4634.000000	1.275333
4632.000000	1.275371
4630.000000	1.275366
4628.000000	1.275354
4626.000000	1.275343
4624.000000	1.275253
4622.000000	1.275237
4620.000000	1.275367
4618.000000	1.275480
4616.000000	1.275405
4614.000000	1.275186
4612.000000	1.275073
4610.000000	1.275165
4608.000000	1.275244
4606.000000	1.275205
4604.000000	1.275239
4602.000000	1.275256
4600.000000	1.275128
4598.000000	1.275052
4596.000000	1.275095
4594.000000	1.275218
4592.000000	1.275394
4590.000000	1.275478
4588.000000	1.275331
4586.000000	1.275306
4584.000000	1.275311
4582.000000	1.275212
4580.000000	1.275200
4578.000000	1.275370
4576.000000	1.275314
4574.000000	1.275126
4572.000000	1.275036
4570.000000	1.275083
4568.000000	1.275046
4566.000000	1.274989
4564.000000	1.274997
4562.000000	1.275102
4560.000000	1.275204
4558.000000	1.275162
4556.000000	1.274980
4554.000000	1.274980
4552.000000	1.275144
4550.000000	1.275185
4548.000000	1.275187
4546.000000	1.275207
4544.000000	1.275121
4542.000000	1.275030
4540.000000	1.274996
4538.000000	1.274964
4536.000000	1.274933
4534.000000	1.274984
4532.000000	1.275066
4530.000000	1.275153
4528.000000	1.275135
4526.000000	1.275107
4524.000000	1.275174
4522.000000	1.275255
4520.000000	1.275165
4518.000000	1.275050
4516.000000	1.275134
4514.000000	1.275293
4512.000000	1.275193
4510.000000	1.274986
4508.000000	1.274895
4506.000000	1.274888
4504.000000	1.274818
4502.000000	1.274746
4500.000000	1.274792
4498.000000	1.274862
4496.000000	1.274740
4494.000000	1.274683
4492.000000	1.274790
4490.000000	1.274906
4488.000000	1.275065
4486.000000	1.275194
4484.000000	1.275069
4482.000000	1.274855
4480.000000	1.274869
4478.000000	1.275122
4476.000000	1.275289
4474.000000	1.275147
4472.000000	1.274891
4470.000000	1.274898
4468.000000	1.275103
4466.000000	1.275128
4464.000000	1.274999
4462.000000	1.274962
4460.000000	1.274989
4458.000000	1.275052
4456.000000	1.275163
4454.000000	1.275214
4452.000000	1.275103
4450.000000	1.274954
4448.000000	1.274975
4446.000000	1.275044
4444.000000	1.274898
4442.000000	1.274669
4440.000000	1.274670
4438.000000	1.274882
4436.000000	1.274943
4434.000000	1.274824
4432.000000	1.274764
4430.000000	1.274738
4428.000000	1.274569
4426.000000	1.274486
4424.000000	1.274608
4422.000000	1.274630
4420.000000	1.274462
4418.000000	1.274541
4416.000000	1.274709
4414.000000	1.274635
4412.000000	1.274482
4410.000000	1.274507
4408.000000	1.274547
4406.000000	1.274531
4404.000000	1.274499
4402.000000	1.274500
4400.000000	1.274364
4398.000000	1.274151
4396.000000	1.274143
4394.000000	1.274281
4392.000000	1.274439
4390.000000	1.274561
4388.000000	1.274532
4386.000000	1.274484
4384.000000	1.274519
4382.000000	1.274483
4380.000000	1.274348
4378.000000	1.274244
4376.000000	1.274336
4374.000000	1.274527
4372.000000	1.274574
4370.000000	1.274499
4368.000000	1.274372
4366.000000	1.274223
4364.000000	1.274166
4362.000000	1.274249
4360.000000	1.274422
4358.000000	1.274482
4356.000000	1.274391
4354.000000	1.274305
4352.000000	1.274384
4350.000000	1.274396
4348.000000	1.274233
4346.000000	1.274164
4344.000000	1.274198
4342.000000	1.274170
4340.000000	1.274218
4338.000000	1.274270
4336.000000	1.274243
4334.000000	1.274204
4332.000000	1.274098
4330.000000	1.273942
4328.000000	1.273911
4326.000000	1.273983
4324.000000	1.274000
4322.000000	1.274007
4320.000000	1.274090
4318.000000	1.274095
4316.000000	1.273933
4314.000000	1.273761
4312.000000	1.273732
4310.000000	1.273829
4308.000000	1.273852
4306.000000	1.273893
4304.000000	1.274141
4302.000000	1.274258
4300.000000	1.274030
4298.000000	1.273953
4296.000000	1.274027
4294.000000	1.273861
4292.000000	1.273650
4290.000000	1.273632
4288.000000	1.273645
4286.000000	1.273712
4284.000000	1.273779
4282.000000	1.273740
4280.000000	1.273701
4278.000000	1.273723
4276.000000	1.273738
4274.000000	1.273628
4272.000000	1.273418
4270.000000	1.273343
4268.000000	1.273351
4266.000000	1.273358
4264.000000	1.273511
4262.000000	1.273636
4260.000000	1.273578
4258.000000	1.273515
4256.000000	1.273518
4254.000000	1.273576
4252.000000	1.273570
4250.000000	1.273432
4248.000000	1.273302
4246.000000	1.273261
4244.000000	1.273182
4242.000000	1.273133
4240.000000	1.273169
4238.000000	1.273235
4236.000000	1.273359
4234.000000	1.273383
4232.000000	1.273163
4230.000000	1.273024
4228.000000	1.273112
4226.000000	1.273206
4224.000000	1.273067
4222.000000	1.272913
4220.000000	1.272992
4218.000000	1.273034
4216.000000	1.272953
4214.000000	1.272968
4212.000000	1.272952
4210.000000	1.272855
4208.000000	1.272847
4206.000000	1.272875
4204.000000	1.272791
4202.000000	1.272734
4200.000000	1.272720
4198.000000	1.272693
4196.000000	1.272822
4194.000000	1.272969
4192.000000	1.272836
4190.000000	1.272599
4188.000000	1.272550
4186.000000	1.272650
4184.000000	1.272720
4182.000000	1.272655
4180.000000	1.272546
4178.000000	1.272604
4176.000000	1.272738
4174.000000	1.272748
4172.000000	1.272680
4170.000000	1.272555
4168.000000	1.272440
4166.000000	1.272394
4164.000000	1.272365
4162.000000	1.272395
4160.000000	1.272379
4158.000000	1.272212
4156.000000	1.272070
4154.000000	1.272073
4152.000000	1.272116
4150.000000	1.272150
4148.000000	1.272177
4146.000000	1.272153
4144.000000	1.272065
4142.000000	1.271933
4140.000000	1.271874
4138.000000	1.271897
4136.000000	1.271825
4134.000000	1.271729
4132.000000	1.271745
4130.000000	1.271735
4128.000000	1.271674
4126.000000	1.271680
4124.000000	1.271688
4122.000000	1.271631
4120.000000	1.271543
4118.000000	1.271431
4116.000000	1.271339
4114.000000	1.271303
4112.000000	1.271325
4110.000000	1.271349
4108.000000	1.271320
4106.000000	1.271281
4104.000000	1.271297
4102.000000	1.271350
4100.000000	1.271401
4098.000000	1.271444
4096.000000	1.271406
4094.000000	1.271321
4092.000000	1.271255
4090.000000	1.271207
4088.000000	1.271205
4086.000000	1.271189
4084.000000	1.271153
4082.000000	1.271187
4080.000000	1.271106
4078.000000	1.270868
4076.000000	1.270756
4074.000000	1.270853
4072.000000	1.270967
4070.000000	1.270957
4068.000000	1.270850
4066.000000	1.270802
4064.000000	1.270732
4062.000000	1.270583
4060.000000	1.270465
4058.000000	1.270403
4056.000000	1.270372
4054.000000	1.270451
4052.000000	1.270484
4050.000000	1.270314
4048.000000	1.270229
4046.000000	1.270312
4044.000000	1.270237
4042.000000	1.270035
4040.000000	1.270002
4038.000000	1.270194
4036.000000	1.270335
4034.000000	1.270283
4032.000000	1.270052
4030.000000	1.269805
4028.000000	1.269770
4026.000000	1.269898
4024.000000	1.269922
4022.000000	1.269787
4020.000000	1.269619
4018.000000	1.269536
4016.000000	1.269571
4014.000000	1.269669
4012.000000	1.269656
4010.000000	1.269531
4008.000000	1.269455
4006.000000	1.269475
4004.000000	1.269519
4002.000000	1.269594
4000.000000	1.269578
3998.000000	1.269363
3996.000000	1.269124
3994.000000	1.269126
3992.000000	1.269237
3990.000000	1.269246
3988.000000	1.269185
3986.000000	1.269098
3984.000000	1.269019
3982.000000	1.269007
3980.000000	1.268998
3978.000000	1.268968
3976.000000	1.268831
3974.000000	1.268640
3972.000000	1.268641
3970.000000	1.268821
3968.000000	1.268854
3966.000000	1.268649
3964.000000	1.268409
3962.000000	1.268430
3960.000000	1.268642
3958.000000	1.268590
3956.000000	1.268258
3954.000000	1.268062
3952.000000	1.267966
3950.000000	1.267939
3948.000000	1.268165
3946.000000	1.268125
3944.000000	1.267632
3942.000000	1.267789
3940.000000	1.268375
3938.000000	1.268230
3936.000000	1.267488
3934.000000	1.266859
3932.000000	1.266938
3930.000000	1.267544
3928.000000	1.267560
3926.000000	1.267068
3924.000000	1.267023
3922.000000	1.266912
3920.000000	1.266351
3918.000000	1.266533
3916.000000	1.267522
3914.000000	1.267936
3912.000000	1.267626
3910.000000	1.267177
3908.000000	1.265915
3906.000000	1.264064
3904.000000	1.263609
3902.000000	1.264626
3900.000000	1.266002
3898.000000	1.267363
3896.000000	1.267225
3894.000000	1.265405
3892.000000	1.264923
3890.000000	1.266002
3888.000000	1.265010
3886.000000	1.264263
3884.000000	1.265950
3882.000000	1.266066
3880.000000	1.265899
3878.000000	1.266577
3876.000000	1.265587
3874.000000	1.264106
3872.000000	1.262584
3870.000000	1.262965
3868.000000	1.265140
3866.000000	1.265026
3864.000000	1.264818
3862.000000	1.266020
3860.000000	1.265893
3858.000000	1.262049
3856.000000	1.255205
3854.000000	1.255452
3852.000000	1.264874
3850.000000	1.269930
3848.000000	1.267730
3846.000000	1.265032
3844.000000	1.263799
3842.000000	1.262344
3840.000000	1.259917
3838.000000	1.260603
3836.000000	1.264417
3834.000000	1.265612
3832.000000	1.265065
3830.000000	1.265339
3828.000000	1.265169
3826.000000	1.264336
3824.000000	1.262052
3822.000000	1.260727
3820.000000	1.262358
3818.000000	1.261915
3816.000000	1.262358
3814.000000	1.266369
3812.000000	1.266625
3810.000000	1.262996
3808.000000	1.261219
3806.000000	1.262667
3804.000000	1.261695
3802.000000	1.260374
3800.000000	1.263972
3798.000000	1.265862
3796.000000	1.265128
3794.000000	1.265497
3792.000000	1.265427
3790.000000	1.264832
3788.000000	1.264405
3786.000000	1.264272
3784.000000	1.264294
3782.000000	1.263737
3780.000000	1.263556
3778.000000	1.264656
3776.000000	1.265112
3774.000000	1.264074
3772.000000	1.262547
3770.000000	1.262396
3768.000000	1.263415
3766.000000	1.263868
3764.000000	1.263865
3762.000000	1.262846
3760.000000	1.262018
3758.000000	1.262624
3756.000000	1.261317
3754.000000	1.256931
3752.000000	1.255092
3750.000000	1.258543
3748.000000	1.259624
3746.000000	1.255937
3744.000000	1.258851
3742.000000	1.265080
3740.000000	1.262843
3738.000000	1.258208
3736.000000	1.258103
3734.000000	1.260194
3732.000000	1.262184
3730.000000	1.263272
3728.000000	1.262119
3726.000000	1.261191
3724.000000	1.261528
3722.000000	1.261796
3720.000000	1.262141
3718.000000	1.262274
3716.000000	1.260915
3714.000000	1.258145
3712.000000	1.258098
3710.000000	1.261257
3708.000000	1.263058
3706.000000	1.262362
3704.000000	1.260784
3702.000000	1.260585
3700.000000	1.261885
3698.000000	1.262246
3696.000000	1.261515
3694.000000	1.260035
3692.000000	1.257257
3690.000000	1.255668
3688.000000	1.259047
3686.000000	1.263018
3684.000000	1.262371
3682.000000	1.260321
3680.000000	1.258245
3678.000000	1.254727
3676.000000	1.254409
3674.000000	1.257703
3672.000000	1.257027
3670.000000	1.257263
3668.000000	1.261032
3666.000000	1.261591
3664.000000	1.260233
3662.000000	1.259591
3660.000000	1.258424
3658.000000	1.256729
3656.000000	1.257317
3654.000000	1.257733
3652.000000	1.254291
3650.000000	1.252944
3648.000000	1.256945
3646.000000	1.260236
3644.000000	1.259860
3642.000000	1.258667
3640.000000	1.258303
3638.000000	1.257987
3636.000000	1.257426
3634.000000	1.256554
3632.000000	1.253716
3630.000000	1.251661
3628.000000	1.255520
3626.000000	1.259195
3624.000000	1.257787
3622.000000	1.255021
3620.000000	1.254087
3618.000000	1.255602
3616.000000	1.256209
3614.000000	1.255124
3612.000000	1.254609
3610.000000	1.254779
3608.000000	1.256053
3606.000000	1.257298
3604.000000	1.256721
3602.000000	1.255752
3600.000000	1.255660
3598.000000	1.255672
3596.000000	1.255467
3594.000000	1.255685
3592.000000	1.255343
3590.000000	1.253814
3588.000000	1.253683
3586.000000	1.255539
3584.000000	1.256326
3582.000000	1.255791
3580.000000	1.255500
3578.000000	1.255516
3576.000000	1.255522
3574.000000	1.255451
3572.000000	1.254902
3570.000000	1.253505
3568.000000	1.253040
3566.000000	1.254593
3564.000000	1.255623
3562.000000	1.255362
3560.000000	1.255287
3558.000000	1.255435
3556.000000	1.255241
3554.000000	1.254943
3552.000000	1.255005
3550.000000	1.255020
3548.000000	1.254621
3546.000000	1.254758
3544.000000	1.255485
3542.000000	1.255826
3540.000000	1.255715
3538.000000	1.255560
3536.000000	1.255661
3534.000000	1.255909
3532.000000	1.255851
3530.000000	1.255587
3528.000000	1.255594
3526.000000	1.255821
3524.000000	1.256013
3522.000000	1.256361
3520.000000	1.256596
3518.000000	1.256699
3516.000000	1.256835
3514.000000	1.256861
3512.000000	1.256886
3510.000000	1.257099
3508.000000	1.257372
3506.000000	1.257338
3504.000000	1.257359
3502.000000	1.257833
3500.000000	1.258236
3498.000000	1.258319
3496.000000	1.258476
3494.000000	1.258784
3492.000000	1.259026
3490.000000	1.259168
3488.000000	1.259309
3486.000000	1.259489
3484.000000	1.259679
3482.000000	1.260100
3480.000000	1.260779
3478.000000	1.261275
3476.000000	1.261506
3474.000000	1.261776
3472.000000	1.262064
3470.000000	1.262265
3468.000000	1.262477
3466.000000	1.262887
3464.000000	1.263350
3462.000000	1.263767
3460.000000	1.264246
3458.000000	1.264711
3456.000000	1.265110
3454.000000	1.265518
3452.000000	1.265930
3450.000000	1.266216
3448.000000	1.266518
3446.000000	1.267096
3444.000000	1.267710
3442.000000	1.268268
3440.000000	1.268804
3438.000000	1.269244
3436.000000	1.269693
3434.000000	1.270189
3432.000000	1.270648
3430.000000	1.271148
3428.000000	1.271747
3426.000000	1.272231
3424.000000	1.272546
3422.000000	1.272794
3420.000000	1.273130
3418.000000	1.273565
3416.000000	1.273897
3414.000000	1.274148
3412.000000	1.274530
3410.000000	1.274904
3408.000000	1.275176
3406.000000	1.275387
3404.000000	1.275512
3402.000000	1.275674
3400.000000	1.275931
3398.000000	1.276316
3396.000000	1.276642
3394.000000	1.276735
3392.000000	1.276924
3390.000000	1.277220
3388.000000	1.277311
3386.000000	1.277383
3384.000000	1.277590
3382.000000	1.277805
3380.000000	1.277974
3378.000000	1.278043
3376.000000	1.278111
3374.000000	1.278311
3372.000000	1.278461
3370.000000	1.278482
3368.000000	1.278522
3366.000000	1.278721
3364.000000	1.279016
3362.000000	1.279171
3360.000000	1.279245
3358.000000	1.279397
3356.000000	1.279565
3354.000000	1.279573
3352.000000	1.279455
3350.000000	1.279553
3348.000000	1.279793
3346.000000	1.279958
3344.000000	1.279964
3342.000000	1.279926
3340.000000	1.279970
3338.000000	1.279976
3336.000000	1.280090
3334.000000	1.280315
3332.000000	1.280434
3330.000000	1.280460
3328.000000	1.280548
3326.000000	1.280740
3324.000000	1.280879
3322.000000	1.280951
3320.000000	1.280928
3318.000000	1.280911
3316.000000	1.280974
3314.000000	1.281101
3312.000000	1.281207
3310.000000	1.281182
3308.000000	1.281166
3306.000000	1.281144
3304.000000	1.281172
3302.000000	1.281258
3300.000000	1.281298
3298.000000	1.281455
3296.000000	1.281635
3294.000000	1.281616
3292.000000	1.281532
3290.000000	1.281620
3288.000000	1.281901
3286.000000	1.282133
3284.000000	1.282119
3282.000000	1.282048
3280.000000	1.282086
3278.000000	1.282145
3276.000000	1.282202
3274.000000	1.282288
3272.000000	1.282290
3270.000000	1.282260
3268.000000	1.282346
3266.000000	1.282494
3264.000000	1.282582
3262.000000	1.282637
3260.000000	1.282729
3258.000000	1.282767
3256.000000	1.282719
3254.000000	1.282866
3252.000000	1.283106
3250.000000	1.283064
3248.000000	1.282902
3246.000000	1.282890
3244.000000	1.283016
3242.000000	1.283119
3240.000000	1.283146
3238.000000	1.283101
3236.000000	1.283136
3234.000000	1.283206
3232.000000	1.283259
3230.000000	1.283366
3228.000000	1.283492
3226.000000	1.283666
3224.000000	1.283733
3222.000000	1.283756
3220.000000	1.283744
3218.000000	1.283653
3216.000000	1.283600
3214.000000	1.283660
3212.000000	1.283750
3210.000000	1.283789
3208.000000	1.283822
3206.000000	1.283745
3204.000000	1.283658
3202.000000	1.283675
3200.000000	1.283717
3198.000000	1.283838
3196.000000	1.283916
3194.000000	1.283894
3192.000000	1.284001
3190.000000	1.284086
3188.000000	1.284014
3186.000000	1.283990
3184.000000	1.283890
3182.000000	1.283731
3180.000000	1.283698
3178.000000	1.283811
3176.000000	1.283994
3174.000000	1.284024
3172.000000	1.283916
3170.000000	1.283917
3168.000000	1.284034
3166.000000	1.284035
3164.000000	1.283987
3162.000000	1.284006
3160.000000	1.284073
3158.000000	1.284138
3156.000000	1.284149
3154.000000	1.284042
3152.000000	1.284043
3150.000000	1.284245
3148.000000	1.284312
3146.000000	1.284324
3144.000000	1.284441
3142.000000	1.284472
3140.000000	1.284429
3138.000000	1.284413
3136.000000	1.284356
3134.000000	1.284337
3132.000000	1.284479
3130.000000	1.284562
3128.000000	1.284561
3126.000000	1.284554
3124.000000	1.284567
3122.000000	1.284504
3120.000000	1.284453
3118.000000	1.284527
3116.000000	1.284572
3114.000000	1.284661
3112.000000	1.284756
3110.000000	1.284713
3108.000000	1.284637
3106.000000	1.284584
3104.000000	1.284560
3102.000000	1.284545
3100.000000	1.284517
3098.000000	1.284482
3096.000000	1.284449
3094.000000	1.284416
3092.000000	1.284370
3090.000000	1.284356
3088.000000	1.284275
3086.000000	1.284090
3084.000000	1.283946
3082.000000	1.283830
3080.000000	1.283649
3078.000000	1.283619
3076.000000	1.283691
3074.000000	1.283671
3072.000000	1.283600
3070.000000	1.283514
3068.000000	1.283373
3066.000000	1.283244
3064.000000	1.283171
3062.000000	1.283136
3060.000000	1.283157
3058.000000	1.283091
3056.000000	1.282967
3054.000000	1.282904
3052.000000	1.282769
3050.000000	1.282707
3048.000000	1.282751
3046.000000	1.282613
3044.000000	1.282367
3042.000000	1.282209
3040.000000	1.282280
3038.000000	1.282316
3036.000000	1.282076
3034.000000	1.281910
3032.000000	1.281980
3030.000000	1.282021
3028.000000	1.281857
3026.000000	1.281607
3024.000000	1.281541
3022.000000	1.281590
3020.000000	1.281645
3018.000000	1.281857
3016.000000	1.282063
3014.000000	1.282166
3012.000000	1.282227
3010.000000	1.282243
3008.000000	1.282206
3006.000000	1.282002
3004.000000	1.281645
3002.000000	1.281425
3000.000000	1.281268
2998.000000	1.281148
2996.000000	1.281131
2994.000000	1.281172
2992.000000	1.281132
2990.000000	1.280948
2988.000000	1.280833
2986.000000	1.280783
2984.000000	1.280735
2982.000000	1.280624
2980.000000	1.280501
2978.000000	1.280435
2976.000000	1.280369
2974.000000	1.280215
2972.000000	1.280140
2970.000000	1.280250
2968.000000	1.280595
2966.000000	1.281148
2964.000000	1.281775
2962.000000	1.282460
2960.000000	1.282862
2958.000000	1.282769
2956.000000	1.282442
2954.000000	1.282024
2952.000000	1.281619
2950.000000	1.281124
2948.000000	1.280511
2946.000000	1.279854
2944.000000	1.279302
2942.000000	1.278866
2940.000000	1.278563
2938.000000	1.278444
2936.000000	1.278576
2934.000000	1.278754
2932.000000	1.278782
2930.000000	1.278825
2928.000000	1.279089
2926.000000	1.279631
2924.000000	1.280486
2922.000000	1.281441
2920.000000	1.282065
2918.000000	1.282297
2916.000000	1.282284
2914.000000	1.282012
2912.000000	1.281520
2910.000000	1.281048
2908.000000	1.280689
2906.000000	1.280407
2904.000000	1.280284
2902.000000	1.280287
2900.000000	1.280258
2898.000000	1.280098
2896.000000	1.279928
2894.000000	1.279844
2892.000000	1.279813
2890.000000	1.279672
2888.000000	1.279426
2886.000000	1.279187
2884.000000	1.279010
2882.000000	1.278874
2880.000000	1.278646
2878.000000	1.278419
2876.000000	1.278224
2874.000000	1.277967
2872.000000	1.277697
2870.000000	1.277363
2868.000000	1.276938
2866.000000	1.276575
2864.000000	1.276598
2862.000000	1.277163
2860.000000	1.277878
2858.000000	1.278484
2856.000000	1.278963
2854.000000	1.279205
2852.000000	1.279330
2850.000000	1.279515
2848.000000	1.279732
2846.000000	1.279709
2844.000000	1.279416
2842.000000	1.279070
2840.000000	1.278802
2838.000000	1.278570
2836.000000	1.278349
2834.000000	1.278212
2832.000000	1.278081
2830.000000	1.278012
2828.000000	1.278061
2826.000000	1.278029
2824.000000	1.277957
2822.000000	1.277895
2820.000000	1.277897
2818.000000	1.277934
2816.000000	1.277860
2814.000000	1.277720
2812.000000	1.277588
2810.000000	1.277518
2808.000000	1.277477
2806.000000	1.277484
2804.000000	1.277469
2802.000000	1.277420
2800.000000	1.277423
2798.000000	1.277435
2796.000000	1.277473
2794.000000	1.277451
2792.000000	1.277290
2790.000000	1.277222
2788.000000	1.277291
2786.000000	1.277374
2784.000000	1.277435
2782.000000	1.277393
2780.000000	1.277250
2778.000000	1.277120
2776.000000	1.277015
2774.000000	1.276954
2772.000000	1.277004
2770.000000	1.276999
2768.000000	1.276906
2766.000000	1.276929
2764.000000	1.277005
2762.000000	1.277024
2760.000000	1.277088
2758.000000	1.277022
2756.000000	1.276918
2754.000000	1.276911
2752.000000	1.276872
2750.000000	1.276886
2748.000000	1.276912
2746.000000	1.276875
2744.000000	1.276901
2742.000000	1.276975
2740.000000	1.277094
2738.000000	1.277055
2736.000000	1.276875
2734.000000	1.276795
2732.000000	1.276831
2730.000000	1.276899
2728.000000	1.276985
2726.000000	1.277048
2724.000000	1.277052
2722.000000	1.277104
2720.000000	1.277238
2718.000000	1.277304
2716.000000	1.277236
2714.000000	1.277239
2712.000000	1.277319
2710.000000	1.277395
2708.000000	1.277509
2706.000000	1.277645
2704.000000	1.277751
2702.000000	1.277800
2700.000000	1.277939
2698.000000	1.278072
2696.000000	1.278064
2694.000000	1.278014
2692.000000	1.278085
2690.000000	1.278228
2688.000000	1.278342
2686.000000	1.278394
2684.000000	1.278496
2682.000000	1.278595
2680.000000	1.278663
2678.000000	1.278727
2676.000000	1.278850
2674.000000	1.278898
2672.000000	1.278910
2670.000000	1.278935
2668.000000	1.279027
2666.000000	1.279143
2664.000000	1.279227
2662.000000	1.279343
2660.000000	1.279473
2658.000000	1.279545
2656.000000	1.279494
2654.000000	1.279476
2652.000000	1.279610
2650.000000	1.279658
2648.000000	1.279673
2646.000000	1.279793
2644.000000	1.279909
2642.000000	1.279924
2640.000000	1.279992
2638.000000	1.280102
2636.000000	1.280189
2634.000000	1.280212
2632.000000	1.280202
2630.000000	1.280142
2628.000000	1.280134
2626.000000	1.280229
2624.000000	1.280317
2622.000000	1.280268
2620.000000	1.280187
2618.000000	1.280213
2616.000000	1.280338
2614.000000	1.280414
2612.000000	1.280453
2610.000000	1.280458
2608.000000	1.280542
2606.000000	1.280630
2604.000000	1.280691
2602.000000	1.280701
2600.000000	1.280731
2598.000000	1.280765
2596.000000	1.280750
2594.000000	1.280778
2592.000000	1.280923
2590.000000	1.281049
2588.000000	1.281042
2586.000000	1.281001
2584.000000	1.281110
2582.000000	1.281235
2580.000000	1.281184
2578.000000	1.281165
2576.000000	1.281232
2574.000000	1.281226
2572.000000	1.281242
2570.000000	1.281234
2568.000000	1.281253
2566.000000	1.281262
2564.000000	1.281163
2562.000000	1.281160
2560.000000	1.281299
2558.000000	1.281319
2556.000000	1.281352
2554.000000	1.281400
2552.000000	1.281403
2550.000000	1.281377
2548.000000	1.281346
2546.000000	1.281366
2544.000000	1.281402
2542.000000	1.281377
2540.000000	1.281372
2538.000000	1.281391
2536.000000	1.281322
2534.000000	1.281219
2532.000000	1.281200
2530.000000	1.281195
2528.000000	1.281136
2526.000000	1.281097
2524.000000	1.281139
2522.000000	1.281216
2520.000000	1.281312
2518.000000	1.281288
2516.000000	1.281194
2514.000000	1.281176
2512.000000	1.281184
2510.000000	1.281105
2508.000000	1.281064
2506.000000	1.281067
2504.000000	1.281044
2502.000000	1.281059
2500.000000	1.281145
2498.000000	1.281102
2496.000000	1.281052
2494.000000	1.281053
2492.000000	1.280984
2490.000000	1.280976
2488.000000	1.280971
2486.000000	1.280873
2484.000000	1.280879
2482.000000	1.280931
2480.000000	1.280975
2478.000000	1.280961
2476.000000	1.280972
2474.000000	1.281054
2472.000000	1.281050
2470.000000	1.280944
2468.000000	1.280930
2466.000000	1.280875
2464.000000	1.280774
2462.000000	1.280792
2460.000000	1.280903
2458.000000	1.280901
2456.000000	1.280809
2454.000000	1.280799
2452.000000	1.280838
2450.000000	1.280842
2448.000000	1.280852
2446.000000	1.280868
2444.000000	1.280948
2442.000000	1.281003
2440.000000	1.280939
2438.000000	1.280794
2436.000000	1.280772
2434.000000	1.280845
2432.000000	1.280874
2430.000000	1.280812
2428.000000	1.280771
2426.000000	1.280740
2424.000000	1.280796
2422.000000	1.280893
2420.000000	1.280882
2418.000000	1.280775
2416.000000	1.280700
2414.000000	1.280722
2412.000000	1.280829
2410.000000	1.280850
2408.000000	1.280793
2406.000000	1.280770
2404.000000	1.280753
2402.000000	1.280713
2400.000000	1.280659
2398.000000	1.280619
2396.000000	1.280647
2394.000000	1.280626
2392.000000	1.280570
2390.000000	1.280539
2388.000000	1.280511
2386.000000	1.280522
2384.000000	1.280497
2382.000000	1.280425
2380.000000	1.280280
2378.000000	1.280017
2376.000000	1.279747
2374.000000	1.279495
2372.000000	1.279246
2370.000000	1.279098
2368.000000	1.279058
2366.000000	1.279028
2364.000000	1.279079
2362.000000	1.279213
2360.000000	1.279530
2358.000000	1.279845
2356.000000	1.280159
2354.000000	1.280504
2352.000000	1.280762
2350.000000	1.280496
2348.000000	1.279732
2346.000000	1.279441
2344.000000	1.279887
2342.000000	1.280764
2340.000000	1.281686
2338.000000	1.281840
2336.000000	1.281295
2334.000000	1.280688
2332.000000	1.280305
2330.000000	1.280117
2328.000000	1.280091
2326.000000	1.280255
2324.000000	1.280415
2322.000000	1.280487
2320.000000	1.280464
2318.000000	1.280434
2316.000000	1.280463
2314.000000	1.280483
2312.000000	1.280505
2310.000000	1.280477
2308.000000	1.280487
2306.000000	1.280428
2304.000000	1.280402
2302.000000	1.280493
2300.000000	1.280511
2298.000000	1.280457
2296.000000	1.280470
2294.000000	1.280518
2292.000000	1.280562
2290.000000	1.280511
2288.000000	1.280448
2286.000000	1.280443
2284.000000	1.280481
2282.000000	1.280525
2280.000000	1.280561
2278.000000	1.280546
2276.000000	1.280596
2274.000000	1.280625
2272.000000	1.280582
2270.000000	1.280522
2268.000000	1.280458
2266.000000	1.280358
2264.000000	1.280339
2262.000000	1.280357
2260.000000	1.280297
2258.000000	1.280253
2256.000000	1.280285
2254.000000	1.280217
2252.000000	1.280182
2250.000000	1.280123
2248.000000	1.280004
2246.000000	1.279974
2244.000000	1.280073
2242.000000	1.280028
2240.000000	1.279878
2238.000000	1.279717
2236.000000	1.279570
2234.000000	1.279437
2232.000000	1.279402
2230.000000	1.279323
2228.000000	1.279316
2226.000000	1.279375
2224.000000	1.279414
2222.000000	1.279284
2220.000000	1.279163
2218.000000	1.279192
2216.000000	1.279113
2214.000000	1.279024
2212.000000	1.278936
2210.000000	1.278829
2208.000000	1.278784
2206.000000	1.278709
2204.000000	1.278657
2202.000000	1.278565
2200.000000	1.278461
2198.000000	1.278395
2196.000000	1.278391
2194.000000	1.278389
2192.000000	1.278425
2190.000000	1.278461
2188.000000	1.278423
2186.000000	1.278215
2184.000000	1.278084
2182.000000	1.278026
2180.000000	1.278034
2178.000000	1.278012
2176.000000	1.277926
2174.000000	1.277824
2172.000000	1.277688
2170.000000	1.277631
2168.000000	1.277809
2166.000000	1.277749
2164.000000	1.277563
2162.000000	1.277458
2160.000000	1.277310
2158.000000	1.277233
2156.000000	1.277269
2154.000000	1.277281
2152.000000	1.277194
2150.000000	1.276981
2148.000000	1.276870
2146.000000	1.276827
2144.000000	1.276824
2142.000000	1.276856
2140.000000	1.276834
2138.000000	1.276723
2136.000000	1.276665
2134.000000	1.276613
2132.000000	1.276574
2130.000000	1.276506
2128.000000	1.276478
2126.000000	1.276450
2124.000000	1.276391
2122.000000	1.276292
2120.000000	1.276288
2118.000000	1.276281
2116.000000	1.276220
2114.000000	1.276180
2112.000000	1.276214
2110.000000	1.276152
2108.000000	1.276118
2106.000000	1.276072
2104.000000	1.275960
2102.000000	1.275939
2100.000000	1.275964
2098.000000	1.275897
2096.000000	1.275874
2094.000000	1.275841
2092.000000	1.275715
2090.000000	1.275692
2088.000000	1.275769
2086.000000	1.275695
2084.000000	1.275657
2082.000000	1.275652
2080.000000	1.275543
2078.000000	1.275437
2076.000000	1.275445
2074.000000	1.275416
2072.000000	1.275387
2070.000000	1.275300
2068.000000	1.275259
2066.000000	1.275182
2064.000000	1.275143
2062.000000	1.275115
2060.000000	1.275092
2058.000000	1.275115
2056.000000	1.275103
2054.000000	1.275088
2052.000000	1.275074
2050.000000	1.274946
2048.000000	1.274901
2046.000000	1.274938
2044.000000	1.274917
2042.000000	1.274756
2040.000000	1.274662
2038.000000	1.274608
2036.000000	1.274587
2034.000000	1.274611
2032.000000	1.274587
2030.000000	1.274510
2028.000000	1.274568
2026.000000	1.274522
2024.000000	1.274401
2022.000000	1.274311
2020.000000	1.274229
2018.000000	1.274109
2016.000000	1.274189
2014.000000	1.274253
2012.000000	1.274285
2010.000000	1.274234
2008.000000	1.274158
2006.000000	1.274111
2004.000000	1.274170
2002.000000	1.274179
2000.000000	1.274092
1998.000000	1.274057
1996.000000	1.274001
1994.000000	1.273685
1992.000000	1.273697
1990.000000	1.273954
1988.000000	1.273887
1986.000000	1.273818
1984.000000	1.273875
1982.000000	1.273878
1980.000000	1.273820
1978.000000	1.273788
1976.000000	1.273752
1974.000000	1.273744
1972.000000	1.273712
1970.000000	1.273607
1968.000000	1.273489
1966.000000	1.273551
1964.000000	1.273662
1962.000000	1.273602
1960.000000	1.273592
1958.000000	1.273893
1956.000000	1.273958
1954.000000	1.273814
1952.000000	1.273738
1950.000000	1.273654
1948.000000	1.273582
1946.000000	1.273409
1944.000000	1.273134
1942.000000	1.273367
1940.000000	1.273860
1938.000000	1.273869
1936.000000	1.273778
1934.000000	1.273669
1932.000000	1.273735
1930.000000	1.273723
1928.000000	1.273652
1926.000000	1.273531
1924.000000	1.273394
1922.000000	1.273543
1920.000000	1.273119
1918.000000	1.273024
1916.000000	1.273925
1914.000000	1.274022
1912.000000	1.273874
1910.000000	1.273761
1908.000000	1.273904
1906.000000	1.273975
1904.000000	1.274047
1902.000000	1.274003
1900.000000	1.273988
1898.000000	1.273960
1896.000000	1.273980
1894.000000	1.274069
1892.000000	1.273854
1890.000000	1.273590
1888.000000	1.274179
1886.000000	1.274269
1884.000000	1.274147
1882.000000	1.274109
1880.000000	1.274186
1878.000000	1.274134
1876.000000	1.274117
1874.000000	1.274031
1872.000000	1.273486
1870.000000	1.272698
1868.000000	1.273517
1866.000000	1.274280
1864.000000	1.274325
1862.000000	1.274235
1860.000000	1.274223
1858.000000	1.274120
1856.000000	1.274241
1854.000000	1.274264
1852.000000	1.274190
1850.000000	1.273877
1848.000000	1.273403
1846.000000	1.271837
1844.000000	1.272323
1842.000000	1.274469
1840.000000	1.274505
1838.000000	1.274174
1836.000000	1.274313
1834.000000	1.274156
1832.000000	1.273054
1830.000000	1.272829
1828.000000	1.273720
1826.000000	1.273401
1824.000000	1.274068
1822.000000	1.274588
1820.000000	1.274450
1818.000000	1.274305
1816.000000	1.274425
1814.000000	1.274244
1812.000000	1.273953
1810.000000	1.274170
1808.000000	1.274591
1806.000000	1.274502
1804.000000	1.274055
1802.000000	1.273428
1800.000000	1.273782
1798.000000	1.274247
1796.000000	1.273586
1794.000000	1.271662
1792.000000	1.272354
1790.000000	1.274494
1788.000000	1.274533
1786.000000	1.273817
1784.000000	1.274118
1782.000000	1.274093
1780.000000	1.274218
1778.000000	1.274373
1776.000000	1.273207
1774.000000	1.270789
1772.000000	1.271784
1770.000000	1.273750
1768.000000	1.274055
1766.000000	1.274961
1764.000000	1.273675
1762.000000	1.273257
1760.000000	1.274501
1758.000000	1.274095
1756.000000	1.274374
1754.000000	1.273631
1752.000000	1.271740
1750.000000	1.272954
1748.000000	1.274208
1746.000000	1.274570
1744.000000	1.274408
1742.000000	1.273564
1740.000000	1.273394
1738.000000	1.273976
1736.000000	1.269788
1734.000000	1.269709
1732.000000	1.275086
1730.000000	1.275939
1728.000000	1.276112
1726.000000	1.275969
1724.000000	1.275744
1722.000000	1.275183
1720.000000	1.271630
1718.000000	1.269443
1716.000000	1.273536
1714.000000	1.276014
1712.000000	1.276449
1710.000000	1.275838
1708.000000	1.275072
1706.000000	1.274442
1704.000000	1.274312
1702.000000	1.269464
1700.000000	1.270054
1698.000000	1.271874
1696.000000	1.271716
1694.000000	1.277198
1692.000000	1.277416
1690.000000	1.276137
1688.000000	1.274223
1686.000000	1.269067
1684.000000	1.271649
1682.000000	1.277263
1680.000000	1.277096
1678.000000	1.275591
1676.000000	1.273941
1674.000000	1.275930
1672.000000	1.275269
1670.000000	1.274368
1668.000000	1.276906
1666.000000	1.277409
1664.000000	1.275740
1662.000000	1.276834
1660.000000	1.278051
1658.000000	1.277085
1656.000000	1.271325
1654.000000	1.265355
1652.000000	1.273156
1650.000000	1.277783
1648.000000	1.273760
1646.000000	1.275060
1644.000000	1.278637
1642.000000	1.278698
1640.000000	1.277608
1638.000000	1.274393
1636.000000	1.273130
1634.000000	1.277918
1632.000000	1.279389
1630.000000	1.277948
1628.000000	1.277555
1626.000000	1.277142
1624.000000	1.276303
1622.000000	1.277717
1620.000000	1.276926
1618.000000	1.273455
1616.000000	1.275819
1614.000000	1.279072
1612.000000	1.278348
1610.000000	1.278414
1608.000000	1.279088
1606.000000	1.279844
1604.000000	1.279953
1602.000000	1.280109
1600.000000	1.280126
1598.000000	1.280172
1596.000000	1.280044
1594.000000	1.280048
1592.000000	1.279914
1590.000000	1.279848
1588.000000	1.279801
1586.000000	1.279795
1584.000000	1.279912
1582.000000	1.280098
1580.000000	1.279088
1578.000000	1.275150
1576.000000	1.275733
1574.000000	1.280240
1572.000000	1.278459
1570.000000	1.277260
1568.000000	1.279057
1566.000000	1.279350
1564.000000	1.278365
1562.000000	1.273221
1560.000000	1.267860
1558.000000	1.273749
1556.000000	1.278103
1554.000000	1.278649
1552.000000	1.279778
1550.000000	1.279728
1548.000000	1.279316
1546.000000	1.277391
1544.000000	1.275204
1542.000000	1.271791
1540.000000	1.271989
1538.000000	1.278407
1536.000000	1.279246
1534.000000	1.277406
1532.000000	1.279156
1530.000000	1.279140
1528.000000	1.277618
1526.000000	1.276907
1524.000000	1.275356
1522.000000	1.273495
1520.000000	1.276458
1518.000000	1.277488
1516.000000	1.277898
1514.000000	1.278441
1512.000000	1.277909
1510.000000	1.275480
1508.000000	1.270657
1506.000000	1.273156
1504.000000	1.278643
1502.000000	1.277228
1500.000000	1.273654
1498.000000	1.271385
1496.000000	1.274289
1494.000000	1.279704
1492.000000	1.280835
1490.000000	1.280836
1488.000000	1.281425
1486.000000	1.281493
1484.000000	1.280975
1482.000000	1.280153
1480.000000	1.279807
1478.000000	1.278509
1476.000000	1.276971
1474.000000	1.275291
1472.000000	1.276979
1470.000000	1.279555
1468.000000	1.278883
1466.000000	1.277351
1464.000000	1.278200
1462.000000	1.278494
1460.000000	1.274883
1458.000000	1.270935
1456.000000	1.274277
1454.000000	1.278002
1452.000000	1.278431
1450.000000	1.279532
1448.000000	1.280284
1446.000000	1.280565
1444.000000	1.279782
1442.000000	1.279303
1440.000000	1.278068
1438.000000	1.275644
1436.000000	1.277041
1434.000000	1.279262
1432.000000	1.278428
1430.000000	1.278256
1428.000000	1.278716
1426.000000	1.278483
1424.000000	1.278095
1422.000000	1.276766
1420.000000	1.274737
1418.000000	1.277153
1416.000000	1.278957
1414.000000	1.278940
1412.000000	1.278368
1410.000000	1.277947
1408.000000	1.277363
1406.000000	1.277109
1404.000000	1.278056
1402.000000	1.278790
1400.000000	1.278430
1398.000000	1.278641
1396.000000	1.277901
1394.000000	1.278276
1392.000000	1.278930
1390.000000	1.277871
1388.000000	1.276799
1386.000000	1.277741
1384.000000	1.278679
1382.000000	1.278952
1380.000000	1.278673
1378.000000	1.278331
1376.000000	1.277687
1374.000000	1.277569
1372.000000	1.277958
1370.000000	1.277816
1368.000000	1.277787
1366.000000	1.277655
1364.000000	1.276850
1362.000000	1.276976
1360.000000	1.277605
1358.000000	1.277701
1356.000000	1.277484
1354.000000	1.277459
1352.000000	1.277474
1350.000000	1.277493
1348.000000	1.277478
1346.000000	1.277495
1344.000000	1.277422
1342.000000	1.277077
1340.000000	1.276758
1338.000000	1.277006
1336.000000	1.277250
1334.000000	1.277415
1332.000000	1.277299
1330.000000	1.277174
1328.000000	1.277135
1326.000000	1.277124
1324.000000	1.277058
1322.000000	1.276930
1320.000000	1.276700
1318.000000	1.276597
1316.000000	1.276439
1314.000000	1.276420
1312.000000	1.276559
1310.000000	1.276592
1308.000000	1.276512
1306.000000	1.276514
1304.000000	1.276386
1302.000000	1.276316
1300.000000	1.276303
1298.000000	1.276296
1296.000000	1.276132
1294.000000	1.275989
1292.000000	1.275900
1290.000000	1.275930
1288.000000	1.275976
1286.000000	1.276104
1284.000000	1.276069
1282.000000	1.276031
1280.000000	1.276160
1278.000000	1.276246
1276.000000	1.276066
1274.000000	1.276127
1272.000000	1.276360
1270.000000	1.276683
1268.000000	1.277144
1266.000000	1.278263
1264.000000	1.280385
1262.000000	1.283113
1260.000000	1.285287
1258.000000	1.286079
1256.000000	1.285087
1254.000000	1.283230
1252.000000	1.281508
1250.000000	1.280371
1248.000000	1.279802
1246.000000	1.279799
1244.000000	1.279760
1242.000000	1.279873
1240.000000	1.280184
1238.000000	1.280444
1236.000000	1.280682
1234.000000	1.281132
1232.000000	1.281412
1230.000000	1.281561
1228.000000	1.281744
1226.000000	1.282150
1224.000000	1.282519
1222.000000	1.282749
1220.000000	1.282894
1218.000000	1.283077
1216.000000	1.283236
1214.000000	1.283684
1212.000000	1.284173
1210.000000	1.284292
1208.000000	1.284294
1206.000000	1.284713
1204.000000	1.285134
1202.000000	1.285412
1200.000000	1.285678
1198.000000	1.285970
1196.000000	1.286094
1194.000000	1.286377
1192.000000	1.286729
1190.000000	1.287203
1188.000000	1.287622
1186.000000	1.287724
1184.000000	1.287667
1182.000000	1.287987
1180.000000	1.288855
1178.000000	1.289660
1176.000000	1.289945
1174.000000	1.290218
1172.000000	1.290435
1170.000000	1.290895
1168.000000	1.291471
1166.000000	1.291940
1164.000000	1.292255
1162.000000	1.292566
1160.000000	1.292939
1158.000000	1.293264
1156.000000	1.293554
1154.000000	1.293946
1152.000000	1.294097
1150.000000	1.294502
1148.000000	1.294674
1146.000000	1.294623
1144.000000	1.294883
1142.000000	1.295473
1140.000000	1.296162
1138.000000	1.296659
1136.000000	1.296697
1134.000000	1.296775
1132.000000	1.296976
1130.000000	1.297327
1128.000000	1.297621
1126.000000	1.298060
1124.000000	1.298260
1122.000000	1.298287
1120.000000	1.298369
1118.000000	1.298789
1116.000000	1.299473
1114.000000	1.299810
1112.000000	1.299971
1110.000000	1.300554
1108.000000	1.300968
1106.000000	1.301289
1104.000000	1.301449
1102.000000	1.301907
1100.000000	1.302550
1098.000000	1.302961
1096.000000	1.303471
1094.000000	1.304280
1092.000000	1.304316
1090.000000	1.303999
1088.000000	1.303846
1086.000000	1.303900
1084.000000	1.303918
1082.000000	1.303921
1080.000000	1.303689
1078.000000	1.303318
1076.000000	1.302750
1074.000000	1.302524
1072.000000	1.301985
1070.000000	1.301773
1068.000000	1.301296
1066.000000	1.300665
1064.000000	1.300376
1062.000000	1.300380
1060.000000	1.299812
1058.000000	1.298914
1056.000000	1.297851
1054.000000	1.297105
1052.000000	1.297144
1050.000000	1.297721
1048.000000	1.298744
1046.000000	1.299303
1044.000000	1.298547
1042.000000	1.296988
1040.000000	1.295490
1038.000000	1.295690
1036.000000	1.295251
1034.000000	1.293743
1032.000000	1.292736
1030.000000	1.292510
1028.000000	1.292368
1026.000000	1.291993
1024.000000	1.291569
1022.000000	1.291700
1020.000000	1.291858
1018.000000	1.290979
1016.000000	1.289883
1014.000000	1.288761
1012.000000	1.286900
1010.000000	1.285436
1008.000000	1.284407
1006.000000	1.282845
1004.000000	1.280115
1002.000000	1.277758
1000.000000	1.276785
