PE IR       SUBTECH     SPECTRUM    ASCII       PEDS        4.00        
   -1
TE110A_081_80K_AFTER_140K.ASC
20/05/14
15:48:54.00
20/05/14
15:48:54.00
Administrator
TE110A.Thursday, May 14 2020, 012.
1000.000000
#HDR
-1
-1
#GR
cm-1
A
1.0
0.0
6000.000000
-2.000000
2501
8
1.285925
1.226827
#DATA
6000.000000	1.240745
5998.000000	1.240511
5996.000000	1.240950
5994.000000	1.241442
5992.000000	1.241256
5990.000000	1.240944
5988.000000	1.241007
5986.000000	1.241145
5984.000000	1.241422
5982.000000	1.241373
5980.000000	1.241349
5978.000000	1.241419
5976.000000	1.240979
5974.000000	1.240539
5972.000000	1.240355
5970.000000	1.240167
5968.000000	1.240249
5966.000000	1.240554
5964.000000	1.241013
5962.000000	1.241029
5960.000000	1.240370
5958.000000	1.239626
5956.000000	1.239755
5954.000000	1.240657
5952.000000	1.240863
5950.000000	1.240407
5948.000000	1.239796
5946.000000	1.239567
5944.000000	1.239871
5942.000000	1.240299
5940.000000	1.240653
5938.000000	1.240932
5936.000000	1.240672
5934.000000	1.240428
5932.000000	1.240572
5930.000000	1.240658
5928.000000	1.240703
5926.000000	1.240693
5924.000000	1.240686
5922.000000	1.240863
5920.000000	1.240637
5918.000000	1.240310
5916.000000	1.240394
5914.000000	1.240296
5912.000000	1.240674
5910.000000	1.241002
5908.000000	1.240767
5906.000000	1.240669
5904.000000	1.240635
5902.000000	1.240809
5900.000000	1.241102
5898.000000	1.240881
5896.000000	1.240649
5894.000000	1.240549
5892.000000	1.240773
5890.000000	1.240576
5888.000000	1.240202
5886.000000	1.239425
5884.000000	1.239131
5882.000000	1.239747
5880.000000	1.240226
5878.000000	1.240243
5876.000000	1.240213
5874.000000	1.240434
5872.000000	1.240875
5870.000000	1.240925
5868.000000	1.240491
5866.000000	1.240429
5864.000000	1.240612
5862.000000	1.240512
5860.000000	1.240537
5858.000000	1.240457
5856.000000	1.240392
5854.000000	1.240128
5852.000000	1.239849
5850.000000	1.240005
5848.000000	1.240249
5846.000000	1.240386
5844.000000	1.240427
5842.000000	1.240379
5840.000000	1.240525
5838.000000	1.240462
5836.000000	1.240394
5834.000000	1.240465
5832.000000	1.240664
5830.000000	1.240851
5828.000000	1.240807
5826.000000	1.240686
5824.000000	1.240483
5822.000000	1.240512
5820.000000	1.240436
5818.000000	1.240410
5816.000000	1.240279
5814.000000	1.240253
5812.000000	1.240469
5810.000000	1.240481
5808.000000	1.240673
5806.000000	1.240852
5804.000000	1.241086
5802.000000	1.241091
5800.000000	1.240836
5798.000000	1.240689
5796.000000	1.240599
5794.000000	1.240717
5792.000000	1.240667
5790.000000	1.240381
5788.000000	1.240489
5786.000000	1.240924
5784.000000	1.241406
5782.000000	1.241360
5780.000000	1.240925
5778.000000	1.240645
5776.000000	1.240691
5774.000000	1.240649
5772.000000	1.240544
5770.000000	1.240452
5768.000000	1.240402
5766.000000	1.240705
5764.000000	1.241049
5762.000000	1.241079
5760.000000	1.240952
5758.000000	1.240481
5756.000000	1.240149
5754.000000	1.240065
5752.000000	1.240098
5750.000000	1.240257
5748.000000	1.240201
5746.000000	1.240045
5744.000000	1.240385
5742.000000	1.240906
5740.000000	1.241297
5738.000000	1.241118
5736.000000	1.240737
5734.000000	1.240596
5732.000000	1.240678
5730.000000	1.240783
5728.000000	1.240658
5726.000000	1.240348
5724.000000	1.240073
5722.000000	1.240126
5720.000000	1.240129
5718.000000	1.240009
5716.000000	1.239958
5714.000000	1.240182
5712.000000	1.240455
5710.000000	1.240580
5708.000000	1.240469
5706.000000	1.240431
5704.000000	1.240607
5702.000000	1.240770
5700.000000	1.241079
5698.000000	1.240917
5696.000000	1.240687
5694.000000	1.240676
5692.000000	1.240638
5690.000000	1.240551
5688.000000	1.240389
5686.000000	1.240756
5684.000000	1.241118
5682.000000	1.240933
5680.000000	1.240414
5678.000000	1.240061
5676.000000	1.240110
5674.000000	1.240104
5672.000000	1.240097
5670.000000	1.240272
5668.000000	1.240435
5666.000000	1.240433
5664.000000	1.240140
5662.000000	1.240091
5660.000000	1.240366
5658.000000	1.240372
5656.000000	1.240269
5654.000000	1.240384
5652.000000	1.240433
5650.000000	1.240045
5648.000000	1.239728
5646.000000	1.240044
5644.000000	1.240776
5642.000000	1.240807
5640.000000	1.240376
5638.000000	1.240140
5636.000000	1.239959
5634.000000	1.239955
5632.000000	1.240148
5630.000000	1.240381
5628.000000	1.240401
5626.000000	1.240192
5624.000000	1.240272
5622.000000	1.240641
5620.000000	1.240665
5618.000000	1.240374
5616.000000	1.240578
5614.000000	1.240800
5612.000000	1.240882
5610.000000	1.240633
5608.000000	1.240405
5606.000000	1.240328
5604.000000	1.240190
5602.000000	1.240256
5600.000000	1.240511
5598.000000	1.240588
5596.000000	1.240627
5594.000000	1.240441
5592.000000	1.240027
5590.000000	1.239809
5588.000000	1.239936
5586.000000	1.240305
5584.000000	1.240606
5582.000000	1.240421
5580.000000	1.240235
5578.000000	1.240241
5576.000000	1.240504
5574.000000	1.240724
5572.000000	1.240612
5570.000000	1.240568
5568.000000	1.240611
5566.000000	1.240490
5564.000000	1.240337
5562.000000	1.240177
5560.000000	1.240065
5558.000000	1.240147
5556.000000	1.240178
5554.000000	1.240219
5552.000000	1.240025
5550.000000	1.239920
5548.000000	1.240039
5546.000000	1.240308
5544.000000	1.240536
5542.000000	1.240555
5540.000000	1.240629
5538.000000	1.240886
5536.000000	1.240952
5534.000000	1.240630
5532.000000	1.240291
5530.000000	1.240163
5528.000000	1.240319
5526.000000	1.240554
5524.000000	1.240652
5522.000000	1.240514
5520.000000	1.240379
5518.000000	1.240395
5516.000000	1.240423
5514.000000	1.240156
5512.000000	1.239992
5510.000000	1.240043
5508.000000	1.240047
5506.000000	1.240298
5504.000000	1.240747
5502.000000	1.240984
5500.000000	1.240754
5498.000000	1.240476
5496.000000	1.240005
5494.000000	1.239523
5492.000000	1.239480
5490.000000	1.240011
5488.000000	1.240657
5486.000000	1.240720
5484.000000	1.240481
5482.000000	1.240021
5480.000000	1.239776
5478.000000	1.239972
5476.000000	1.240357
5474.000000	1.240436
5472.000000	1.240175
5470.000000	1.239900
5468.000000	1.239941
5466.000000	1.240296
5464.000000	1.240556
5462.000000	1.240521
5460.000000	1.240491
5458.000000	1.240487
5456.000000	1.240608
5454.000000	1.240661
5452.000000	1.240426
5450.000000	1.239782
5448.000000	1.239097
5446.000000	1.239062
5444.000000	1.239619
5442.000000	1.240105
5440.000000	1.240135
5438.000000	1.240062
5436.000000	1.240069
5434.000000	1.240079
5432.000000	1.240062
5430.000000	1.240255
5428.000000	1.240503
5426.000000	1.240547
5424.000000	1.240407
5422.000000	1.240287
5420.000000	1.240282
5418.000000	1.239982
5416.000000	1.239337
5414.000000	1.238964
5412.000000	1.239353
5410.000000	1.240218
5408.000000	1.240536
5406.000000	1.240411
5404.000000	1.240145
5402.000000	1.239907
5400.000000	1.239736
5398.000000	1.239605
5396.000000	1.239670
5394.000000	1.239955
5392.000000	1.240274
5390.000000	1.240419
5388.000000	1.240256
5386.000000	1.240002
5384.000000	1.239907
5382.000000	1.239824
5380.000000	1.239517
5378.000000	1.239122
5376.000000	1.239079
5374.000000	1.239427
5372.000000	1.239850
5370.000000	1.239983
5368.000000	1.239926
5366.000000	1.239910
5364.000000	1.240032
5362.000000	1.240328
5360.000000	1.240395
5358.000000	1.240081
5356.000000	1.239542
5354.000000	1.239401
5352.000000	1.239728
5350.000000	1.240100
5348.000000	1.239739
5346.000000	1.239327
5344.000000	1.239467
5342.000000	1.239688
5340.000000	1.239637
5338.000000	1.239748
5336.000000	1.240432
5334.000000	1.240963
5332.000000	1.240727
5330.000000	1.240256
5328.000000	1.240093
5326.000000	1.240188
5324.000000	1.240258
5322.000000	1.240115
5320.000000	1.240085
5318.000000	1.240078
5316.000000	1.240160
5314.000000	1.240306
5312.000000	1.240447
5310.000000	1.240183
5308.000000	1.239882
5306.000000	1.239983
5304.000000	1.240227
5302.000000	1.240186
5300.000000	1.240024
5298.000000	1.239978
5296.000000	1.239801
5294.000000	1.239473
5292.000000	1.239466
5290.000000	1.239777
5288.000000	1.240035
5286.000000	1.240086
5284.000000	1.240087
5282.000000	1.239972
5280.000000	1.239886
5278.000000	1.240061
5276.000000	1.240173
5274.000000	1.240039
5272.000000	1.239901
5270.000000	1.239951
5268.000000	1.239754
5266.000000	1.239470
5264.000000	1.239528
5262.000000	1.240020
5260.000000	1.240301
5258.000000	1.240018
5256.000000	1.239721
5254.000000	1.239992
5252.000000	1.240293
5250.000000	1.240024
5248.000000	1.239870
5246.000000	1.240162
5244.000000	1.240515
5242.000000	1.240485
5240.000000	1.240508
5238.000000	1.240510
5236.000000	1.240403
5234.000000	1.240372
5232.000000	1.240429
5230.000000	1.240188
5228.000000	1.239795
5226.000000	1.239684
5224.000000	1.240054
5222.000000	1.240344
5220.000000	1.240384
5218.000000	1.240257
5216.000000	1.240113
5214.000000	1.240140
5212.000000	1.240142
5210.000000	1.239828
5208.000000	1.239448
5206.000000	1.239602
5204.000000	1.240210
5202.000000	1.240595
5200.000000	1.240351
5198.000000	1.240047
5196.000000	1.240124
5194.000000	1.240437
5192.000000	1.240257
5190.000000	1.240046
5188.000000	1.240125
5186.000000	1.240291
5184.000000	1.240274
5182.000000	1.240248
5180.000000	1.240299
5178.000000	1.240327
5176.000000	1.240341
5174.000000	1.240326
5172.000000	1.240227
5170.000000	1.240283
5168.000000	1.240407
5166.000000	1.240474
5164.000000	1.240566
5162.000000	1.240670
5160.000000	1.240657
5158.000000	1.240504
5156.000000	1.240491
5154.000000	1.240499
5152.000000	1.240449
5150.000000	1.240534
5148.000000	1.240588
5146.000000	1.240576
5144.000000	1.240537
5142.000000	1.240622
5140.000000	1.240679
5138.000000	1.240639
5136.000000	1.240721
5134.000000	1.240743
5132.000000	1.240718
5130.000000	1.240554
5128.000000	1.240517
5126.000000	1.240615
5124.000000	1.240681
5122.000000	1.240582
5120.000000	1.240332
5118.000000	1.240224
5116.000000	1.240346
5114.000000	1.240559
5112.000000	1.240774
5110.000000	1.240934
5108.000000	1.241004
5106.000000	1.241078
5104.000000	1.241100
5102.000000	1.240953
5100.000000	1.240725
5098.000000	1.240674
5096.000000	1.240711
5094.000000	1.240730
5092.000000	1.240756
5090.000000	1.240693
5088.000000	1.240611
5086.000000	1.240492
5084.000000	1.240460
5082.000000	1.240631
5080.000000	1.240688
5078.000000	1.240586
5076.000000	1.240515
5074.000000	1.240681
5072.000000	1.240865
5070.000000	1.241042
5068.000000	1.241047
5066.000000	1.240781
5064.000000	1.240475
5062.000000	1.240350
5060.000000	1.240406
5058.000000	1.240693
5056.000000	1.241114
5054.000000	1.241328
5052.000000	1.241141
5050.000000	1.240967
5048.000000	1.241105
5046.000000	1.241287
5044.000000	1.241127
5042.000000	1.240915
5040.000000	1.240889
5038.000000	1.241055
5036.000000	1.241137
5034.000000	1.241159
5032.000000	1.241224
5030.000000	1.241363
5028.000000	1.241425
5026.000000	1.241416
5024.000000	1.241389
5022.000000	1.241332
5020.000000	1.241223
5018.000000	1.241080
5016.000000	1.240967
5014.000000	1.241017
5012.000000	1.241058
5010.000000	1.241022
5008.000000	1.241064
5006.000000	1.241209
5004.000000	1.241376
5002.000000	1.241386
5000.000000	1.241357
4998.000000	1.241314
4996.000000	1.241357
4994.000000	1.241298
4992.000000	1.241149
4990.000000	1.241156
4988.000000	1.241277
4986.000000	1.241439
4984.000000	1.241506
4982.000000	1.241484
4980.000000	1.241432
4978.000000	1.241355
4976.000000	1.241271
4974.000000	1.241238
4972.000000	1.241309
4970.000000	1.241266
4968.000000	1.241266
4966.000000	1.241617
4964.000000	1.241987
4962.000000	1.241947
4960.000000	1.241628
4958.000000	1.241493
4956.000000	1.241566
4954.000000	1.241675
4952.000000	1.241591
4950.000000	1.241438
4948.000000	1.241417
4946.000000	1.241624
4944.000000	1.241640
4942.000000	1.241446
4940.000000	1.241317
4938.000000	1.241336
4936.000000	1.241324
4934.000000	1.241484
4932.000000	1.241847
4930.000000	1.242099
4928.000000	1.242020
4926.000000	1.241893
4924.000000	1.241864
4922.000000	1.242049
4920.000000	1.242176
4918.000000	1.242048
4916.000000	1.241867
4914.000000	1.241813
4912.000000	1.241779
4910.000000	1.241735
4908.000000	1.241755
4906.000000	1.241694
4904.000000	1.241623
4902.000000	1.241732
4900.000000	1.241905
4898.000000	1.241912
4896.000000	1.241868
4894.000000	1.241958
4892.000000	1.242088
4890.000000	1.242094
4888.000000	1.241894
4886.000000	1.241748
4884.000000	1.241837
4882.000000	1.241999
4880.000000	1.242114
4878.000000	1.242229
4876.000000	1.242303
4874.000000	1.242200
4872.000000	1.241923
4870.000000	1.241807
4868.000000	1.241870
4866.000000	1.241976
4864.000000	1.242038
4862.000000	1.242232
4860.000000	1.242325
4858.000000	1.242264
4856.000000	1.242203
4854.000000	1.242148
4852.000000	1.242034
4850.000000	1.242058
4848.000000	1.242165
4846.000000	1.242208
4844.000000	1.242167
4842.000000	1.242198
4840.000000	1.242391
4838.000000	1.242468
4836.000000	1.242250
4834.000000	1.242127
4832.000000	1.242291
4830.000000	1.242362
4828.000000	1.242259
4826.000000	1.242219
4824.000000	1.242350
4822.000000	1.242460
4820.000000	1.242422
4818.000000	1.242260
4816.000000	1.242178
4814.000000	1.242223
4812.000000	1.242317
4810.000000	1.242347
4808.000000	1.242257
4806.000000	1.242111
4804.000000	1.242106
4802.000000	1.242298
4800.000000	1.242491
4798.000000	1.242528
4796.000000	1.242441
4794.000000	1.242285
4792.000000	1.242115
4790.000000	1.242185
4788.000000	1.242346
4786.000000	1.242291
4784.000000	1.242129
4782.000000	1.242154
4780.000000	1.242332
4778.000000	1.242405
4776.000000	1.242285
4774.000000	1.242316
4772.000000	1.242551
4770.000000	1.242640
4768.000000	1.242477
4766.000000	1.242441
4764.000000	1.242623
4762.000000	1.242804
4760.000000	1.242641
4758.000000	1.242320
4756.000000	1.242341
4754.000000	1.242587
4752.000000	1.242578
4750.000000	1.242457
4748.000000	1.242505
4746.000000	1.242702
4744.000000	1.242734
4742.000000	1.242576
4740.000000	1.242453
4738.000000	1.242497
4736.000000	1.242447
4734.000000	1.242331
4732.000000	1.242265
4730.000000	1.242235
4728.000000	1.242346
4726.000000	1.242623
4724.000000	1.242631
4722.000000	1.242344
4720.000000	1.242289
4718.000000	1.242441
4716.000000	1.242400
4714.000000	1.242245
4712.000000	1.242259
4710.000000	1.242336
4708.000000	1.242356
4706.000000	1.242306
4704.000000	1.242295
4702.000000	1.242519
4700.000000	1.242705
4698.000000	1.242572
4696.000000	1.242344
4694.000000	1.242411
4692.000000	1.242530
4690.000000	1.242527
4688.000000	1.242501
4686.000000	1.242560
4684.000000	1.242561
4682.000000	1.242570
4680.000000	1.242630
4678.000000	1.242639
4676.000000	1.242592
4674.000000	1.242588
4672.000000	1.242555
4670.000000	1.242620
4668.000000	1.242900
4666.000000	1.243056
4664.000000	1.242832
4662.000000	1.242569
4660.000000	1.242572
4658.000000	1.242686
4656.000000	1.242735
4654.000000	1.242754
4652.000000	1.242769
4650.000000	1.242721
4648.000000	1.242667
4646.000000	1.242714
4644.000000	1.242850
4642.000000	1.242918
4640.000000	1.242882
4638.000000	1.242807
4636.000000	1.242731
4634.000000	1.242596
4632.000000	1.242531
4630.000000	1.242664
4628.000000	1.242837
4626.000000	1.242885
4624.000000	1.242883
4622.000000	1.242881
4620.000000	1.242847
4618.000000	1.242885
4616.000000	1.242982
4614.000000	1.243071
4612.000000	1.243022
4610.000000	1.242837
4608.000000	1.242743
4606.000000	1.242869
4604.000000	1.242934
4602.000000	1.242895
4600.000000	1.242931
4598.000000	1.243020
4596.000000	1.243048
4594.000000	1.243026
4592.000000	1.242911
4590.000000	1.242777
4588.000000	1.242843
4586.000000	1.243089
4584.000000	1.243262
4582.000000	1.243183
4580.000000	1.243078
4578.000000	1.243132
4576.000000	1.243180
4574.000000	1.243136
4572.000000	1.243095
4570.000000	1.243080
4568.000000	1.243127
4566.000000	1.243191
4564.000000	1.243149
4562.000000	1.243089
4560.000000	1.243155
4558.000000	1.243108
4556.000000	1.242992
4554.000000	1.243127
4552.000000	1.243383
4550.000000	1.243362
4548.000000	1.243295
4546.000000	1.243278
4544.000000	1.243095
4542.000000	1.243022
4540.000000	1.243282
4538.000000	1.243437
4536.000000	1.243255
4534.000000	1.243056
4532.000000	1.243012
4530.000000	1.243132
4528.000000	1.243253
4526.000000	1.243260
4524.000000	1.243276
4522.000000	1.243364
4520.000000	1.243296
4518.000000	1.243115
4516.000000	1.243075
4514.000000	1.243152
4512.000000	1.243104
4510.000000	1.242978
4508.000000	1.242942
4506.000000	1.242955
4504.000000	1.242961
4502.000000	1.242989
4500.000000	1.243067
4498.000000	1.243117
4496.000000	1.243202
4494.000000	1.243354
4492.000000	1.243396
4490.000000	1.243198
4488.000000	1.242972
4486.000000	1.242986
4484.000000	1.243241
4482.000000	1.243455
4480.000000	1.243491
4478.000000	1.243449
4476.000000	1.243411
4474.000000	1.243440
4472.000000	1.243527
4470.000000	1.243647
4468.000000	1.243702
4466.000000	1.243664
4464.000000	1.243629
4462.000000	1.243592
4460.000000	1.243394
4458.000000	1.243226
4456.000000	1.243230
4454.000000	1.243391
4452.000000	1.243675
4450.000000	1.243821
4448.000000	1.243653
4446.000000	1.243533
4444.000000	1.243576
4442.000000	1.243548
4440.000000	1.243491
4438.000000	1.243506
4436.000000	1.243534
4434.000000	1.243497
4432.000000	1.243377
4430.000000	1.243276
4428.000000	1.243265
4426.000000	1.243329
4424.000000	1.243483
4422.000000	1.243584
4420.000000	1.243537
4418.000000	1.243474
4416.000000	1.243439
4414.000000	1.243399
4412.000000	1.243339
4410.000000	1.243316
4408.000000	1.243344
4406.000000	1.243294
4404.000000	1.243181
4402.000000	1.243269
4400.000000	1.243490
4398.000000	1.243635
4396.000000	1.243680
4394.000000	1.243628
4392.000000	1.243557
4390.000000	1.243611
4388.000000	1.243672
4386.000000	1.243588
4384.000000	1.243505
4382.000000	1.243588
4380.000000	1.243647
4378.000000	1.243656
4376.000000	1.243744
4374.000000	1.243789
4372.000000	1.243727
4370.000000	1.243753
4368.000000	1.243810
4366.000000	1.243854
4364.000000	1.243843
4362.000000	1.243863
4360.000000	1.243919
4358.000000	1.243882
4356.000000	1.243735
4354.000000	1.243641
4352.000000	1.243645
4350.000000	1.243671
4348.000000	1.243538
4346.000000	1.243403
4344.000000	1.243487
4342.000000	1.243642
4340.000000	1.243637
4338.000000	1.243561
4336.000000	1.243589
4334.000000	1.243678
4332.000000	1.243689
4330.000000	1.243707
4328.000000	1.243772
4326.000000	1.243775
4324.000000	1.243627
4322.000000	1.243542
4320.000000	1.243732
4318.000000	1.243977
4316.000000	1.243991
4314.000000	1.243860
4312.000000	1.243647
4310.000000	1.243518
4308.000000	1.243601
4306.000000	1.243698
4304.000000	1.243640
4302.000000	1.243513
4300.000000	1.243451
4298.000000	1.243529
4296.000000	1.243614
4294.000000	1.243670
4292.000000	1.243739
4290.000000	1.243721
4288.000000	1.243592
4286.000000	1.243505
4284.000000	1.243504
4282.000000	1.243555
4280.000000	1.243654
4278.000000	1.243743
4276.000000	1.243765
4274.000000	1.243747
4272.000000	1.243763
4270.000000	1.243754
4268.000000	1.243640
4266.000000	1.243603
4264.000000	1.243734
4262.000000	1.243833
4260.000000	1.243824
4258.000000	1.243708
4256.000000	1.243515
4254.000000	1.243434
4252.000000	1.243537
4250.000000	1.243666
4248.000000	1.243702
4246.000000	1.243614
4244.000000	1.243524
4242.000000	1.243564
4240.000000	1.243675
4238.000000	1.243674
4236.000000	1.243527
4234.000000	1.243448
4232.000000	1.243547
4230.000000	1.243582
4228.000000	1.243501
4226.000000	1.243554
4224.000000	1.243719
4222.000000	1.243795
4220.000000	1.243745
4218.000000	1.243615
4216.000000	1.243483
4214.000000	1.243427
4212.000000	1.243463
4210.000000	1.243479
4208.000000	1.243416
4206.000000	1.243430
4204.000000	1.243478
4202.000000	1.243418
4200.000000	1.243350
4198.000000	1.243387
4196.000000	1.243578
4194.000000	1.243736
4192.000000	1.243609
4190.000000	1.243482
4188.000000	1.243547
4186.000000	1.243596
4184.000000	1.243556
4182.000000	1.243550
4180.000000	1.243540
4178.000000	1.243432
4176.000000	1.243309
4174.000000	1.243363
4172.000000	1.243489
4170.000000	1.243494
4168.000000	1.243375
4166.000000	1.243325
4164.000000	1.243376
4162.000000	1.243333
4160.000000	1.243102
4158.000000	1.242952
4156.000000	1.243086
4154.000000	1.243325
4152.000000	1.243404
4150.000000	1.243368
4148.000000	1.243297
4146.000000	1.243224
4144.000000	1.243168
4142.000000	1.243122
4140.000000	1.243129
4138.000000	1.243161
4136.000000	1.243048
4134.000000	1.242917
4132.000000	1.242933
4130.000000	1.243007
4128.000000	1.243058
4126.000000	1.243060
4124.000000	1.242991
4122.000000	1.242874
4120.000000	1.242764
4118.000000	1.242703
4116.000000	1.242659
4114.000000	1.242668
4112.000000	1.242738
4110.000000	1.242846
4108.000000	1.242864
4106.000000	1.242771
4104.000000	1.242793
4102.000000	1.242904
4100.000000	1.242935
4098.000000	1.242929
4096.000000	1.242878
4094.000000	1.242854
4092.000000	1.242813
4090.000000	1.242695
4088.000000	1.242729
4086.000000	1.242929
4084.000000	1.242963
4082.000000	1.242845
4080.000000	1.242764
4078.000000	1.242723
4076.000000	1.242615
4074.000000	1.242590
4072.000000	1.242592
4070.000000	1.242477
4068.000000	1.242485
4066.000000	1.242601
4064.000000	1.242544
4062.000000	1.242500
4060.000000	1.242617
4058.000000	1.242696
4056.000000	1.242571
4054.000000	1.242407
4052.000000	1.242362
4050.000000	1.242387
4048.000000	1.242372
4046.000000	1.242342
4044.000000	1.242314
4042.000000	1.242237
4040.000000	1.242109
4038.000000	1.242049
4036.000000	1.242114
4034.000000	1.242183
4032.000000	1.242065
4030.000000	1.241919
4028.000000	1.241870
4026.000000	1.241877
4024.000000	1.242045
4022.000000	1.242165
4020.000000	1.242047
4018.000000	1.241946
4016.000000	1.241924
4014.000000	1.241895
4012.000000	1.241828
4010.000000	1.241803
4008.000000	1.241882
4006.000000	1.241979
4004.000000	1.241964
4002.000000	1.241912
4000.000000	1.241918
3998.000000	1.241932
3996.000000	1.241918
3994.000000	1.241882
3992.000000	1.241878
3990.000000	1.241877
3988.000000	1.241771
3986.000000	1.241700
3984.000000	1.241739
3982.000000	1.241771
3980.000000	1.241710
3978.000000	1.241617
3976.000000	1.241526
3974.000000	1.241517
3972.000000	1.241602
3970.000000	1.241626
3968.000000	1.241509
3966.000000	1.241381
3964.000000	1.241280
3962.000000	1.241254
3960.000000	1.241295
3958.000000	1.241293
3956.000000	1.241215
3954.000000	1.241036
3952.000000	1.240699
3950.000000	1.240530
3948.000000	1.240642
3946.000000	1.240676
3944.000000	1.240589
3942.000000	1.240834
3940.000000	1.241130
3938.000000	1.240994
3936.000000	1.240538
3934.000000	1.240131
3932.000000	1.240302
3930.000000	1.240813
3928.000000	1.240698
3926.000000	1.240249
3924.000000	1.240295
3922.000000	1.240276
3920.000000	1.239699
3918.000000	1.239653
3916.000000	1.240522
3914.000000	1.241090
3912.000000	1.240838
3910.000000	1.240299
3908.000000	1.239080
3906.000000	1.237232
3904.000000	1.236596
3902.000000	1.237552
3900.000000	1.239035
3898.000000	1.240528
3896.000000	1.240586
3894.000000	1.238817
3892.000000	1.238161
3890.000000	1.239213
3888.000000	1.238310
3886.000000	1.237365
3884.000000	1.238781
3882.000000	1.239063
3880.000000	1.239259
3878.000000	1.240118
3876.000000	1.239094
3874.000000	1.237393
3872.000000	1.235721
3870.000000	1.236107
3868.000000	1.238239
3866.000000	1.238131
3864.000000	1.237954
3862.000000	1.239209
3860.000000	1.239399
3858.000000	1.235857
3856.000000	1.228792
3854.000000	1.228192
3852.000000	1.237017
3850.000000	1.242492
3848.000000	1.240961
3846.000000	1.238513
3844.000000	1.237382
3842.000000	1.236077
3840.000000	1.233506
3838.000000	1.233809
3836.000000	1.237603
3834.000000	1.239122
3832.000000	1.238730
3830.000000	1.238891
3828.000000	1.238607
3826.000000	1.237829
3824.000000	1.235653
3822.000000	1.234322
3820.000000	1.235801
3818.000000	1.235264
3816.000000	1.235685
3814.000000	1.239752
3812.000000	1.240387
3810.000000	1.237032
3808.000000	1.235092
3806.000000	1.236287
3804.000000	1.235174
3802.000000	1.233680
3800.000000	1.237103
3798.000000	1.239153
3796.000000	1.238736
3794.000000	1.239261
3792.000000	1.239313
3790.000000	1.238926
3788.000000	1.238621
3786.000000	1.238426
3784.000000	1.238400
3782.000000	1.237817
3780.000000	1.237468
3778.000000	1.238443
3776.000000	1.239070
3774.000000	1.238218
3772.000000	1.236703
3770.000000	1.236451
3768.000000	1.237410
3766.000000	1.237896
3764.000000	1.237912
3762.000000	1.237047
3760.000000	1.236277
3758.000000	1.236786
3756.000000	1.235499
3754.000000	1.230979
3752.000000	1.228702
3750.000000	1.231854
3748.000000	1.232998
3746.000000	1.229481
3744.000000	1.232335
3742.000000	1.238678
3740.000000	1.236990
3738.000000	1.232508
3736.000000	1.232073
3734.000000	1.233949
3732.000000	1.235966
3730.000000	1.237340
3728.000000	1.236547
3726.000000	1.235712
3724.000000	1.235995
3722.000000	1.236339
3720.000000	1.236796
3718.000000	1.236836
3716.000000	1.235462
3714.000000	1.232791
3712.000000	1.232538
3710.000000	1.235515
3708.000000	1.237592
3706.000000	1.237246
3704.000000	1.235767
3702.000000	1.235482
3700.000000	1.236653
3698.000000	1.237016
3696.000000	1.236357
3694.000000	1.234870
3692.000000	1.232042
3690.000000	1.230231
3688.000000	1.233323
3686.000000	1.237497
3684.000000	1.237316
3682.000000	1.235444
3680.000000	1.233295
3678.000000	1.229589
3676.000000	1.228895
3674.000000	1.231987
3672.000000	1.231652
3670.000000	1.232010
3668.000000	1.235625
3666.000000	1.236447
3664.000000	1.235421
3662.000000	1.234885
3660.000000	1.233712
3658.000000	1.231942
3656.000000	1.232337
3654.000000	1.232614
3652.000000	1.229133
3650.000000	1.227606
3648.000000	1.231403
3646.000000	1.234761
3644.000000	1.234790
3642.000000	1.233984
3640.000000	1.233711
3638.000000	1.233414
3636.000000	1.232852
3634.000000	1.231862
3632.000000	1.228994
3630.000000	1.226827
3628.000000	1.230343
3626.000000	1.234015
3624.000000	1.232976
3622.000000	1.230358
3620.000000	1.229399
3618.000000	1.230886
3616.000000	1.231535
3614.000000	1.230529
3612.000000	1.229782
3610.000000	1.229627
3608.000000	1.230827
3606.000000	1.232215
3604.000000	1.231938
3602.000000	1.231181
3600.000000	1.230997
3598.000000	1.230794
3596.000000	1.230520
3594.000000	1.230691
3592.000000	1.230351
3590.000000	1.228892
3588.000000	1.228657
3586.000000	1.230392
3584.000000	1.231337
3582.000000	1.230967
3580.000000	1.230713
3578.000000	1.230774
3576.000000	1.230692
3574.000000	1.230548
3572.000000	1.230001
3570.000000	1.228597
3568.000000	1.227980
3566.000000	1.229286
3564.000000	1.230394
3562.000000	1.230296
3560.000000	1.230092
3558.000000	1.230115
3556.000000	1.230036
3554.000000	1.229812
3552.000000	1.229865
3550.000000	1.229888
3548.000000	1.229470
3546.000000	1.229529
3544.000000	1.230213
3542.000000	1.230596
3540.000000	1.230442
3538.000000	1.230210
3536.000000	1.230211
3534.000000	1.230292
3532.000000	1.230190
3530.000000	1.229960
3528.000000	1.229945
3526.000000	1.230203
3524.000000	1.230437
3522.000000	1.230693
3520.000000	1.230871
3518.000000	1.230927
3516.000000	1.230959
3514.000000	1.230956
3512.000000	1.230891
3510.000000	1.230986
3508.000000	1.231284
3506.000000	1.231316
3504.000000	1.231240
3502.000000	1.231523
3500.000000	1.231866
3498.000000	1.231992
3496.000000	1.232174
3494.000000	1.232394
3492.000000	1.232446
3490.000000	1.232564
3488.000000	1.232935
3486.000000	1.233213
3484.000000	1.233216
3482.000000	1.233315
3480.000000	1.233677
3478.000000	1.234046
3476.000000	1.234392
3474.000000	1.234746
3472.000000	1.234911
3470.000000	1.234991
3468.000000	1.235301
3466.000000	1.235789
3464.000000	1.236121
3462.000000	1.236418
3460.000000	1.236858
3458.000000	1.237296
3456.000000	1.237639
3454.000000	1.237918
3452.000000	1.238237
3450.000000	1.238528
3448.000000	1.238828
3446.000000	1.239394
3444.000000	1.239962
3442.000000	1.240407
3440.000000	1.240980
3438.000000	1.241584
3436.000000	1.242073
3434.000000	1.242569
3432.000000	1.243110
3430.000000	1.243652
3428.000000	1.244136
3426.000000	1.244470
3424.000000	1.244755
3422.000000	1.245231
3420.000000	1.245770
3418.000000	1.246181
3416.000000	1.246586
3414.000000	1.246920
3412.000000	1.247141
3410.000000	1.247343
3408.000000	1.247601
3406.000000	1.247917
3404.000000	1.248199
3402.000000	1.248418
3400.000000	1.248629
3398.000000	1.248930
3396.000000	1.249237
3394.000000	1.249329
3392.000000	1.249410
3390.000000	1.249700
3388.000000	1.249972
3386.000000	1.250134
3384.000000	1.250337
3382.000000	1.250571
3380.000000	1.250687
3378.000000	1.250707
3376.000000	1.250858
3374.000000	1.251097
3372.000000	1.251111
3370.000000	1.250982
3368.000000	1.251102
3366.000000	1.251398
3364.000000	1.251554
3362.000000	1.251661
3360.000000	1.251837
3358.000000	1.252034
3356.000000	1.252101
3354.000000	1.252084
3352.000000	1.252072
3350.000000	1.252182
3348.000000	1.252368
3346.000000	1.252424
3344.000000	1.252451
3342.000000	1.252525
3340.000000	1.252484
3338.000000	1.252408
3336.000000	1.252527
3334.000000	1.252710
3332.000000	1.252833
3330.000000	1.252921
3328.000000	1.252932
3326.000000	1.252943
3324.000000	1.253016
3322.000000	1.253166
3320.000000	1.253323
3318.000000	1.253458
3316.000000	1.253554
3314.000000	1.253499
3312.000000	1.253402
3310.000000	1.253385
3308.000000	1.253377
3306.000000	1.253462
3304.000000	1.253658
3302.000000	1.253837
3300.000000	1.253940
3298.000000	1.254001
3296.000000	1.254004
3294.000000	1.254004
3292.000000	1.253994
3290.000000	1.254093
3288.000000	1.254285
3286.000000	1.254348
3284.000000	1.254371
3282.000000	1.254483
3280.000000	1.254538
3278.000000	1.254484
3276.000000	1.254490
3274.000000	1.254485
3272.000000	1.254470
3270.000000	1.254671
3268.000000	1.254901
3266.000000	1.254934
3264.000000	1.254917
3262.000000	1.254964
3260.000000	1.255066
3258.000000	1.255217
3256.000000	1.255314
3254.000000	1.255338
3252.000000	1.255364
3250.000000	1.255459
3248.000000	1.255508
3246.000000	1.255525
3244.000000	1.255725
3242.000000	1.255904
3240.000000	1.255873
3238.000000	1.255857
3236.000000	1.255975
3234.000000	1.256142
3232.000000	1.256273
3230.000000	1.256436
3228.000000	1.256586
3226.000000	1.256657
3224.000000	1.256725
3222.000000	1.256769
3220.000000	1.256807
3218.000000	1.256922
3216.000000	1.257114
3214.000000	1.257231
3212.000000	1.257182
3210.000000	1.257176
3208.000000	1.257195
3206.000000	1.257181
3204.000000	1.257283
3202.000000	1.257401
3200.000000	1.257442
3198.000000	1.257454
3196.000000	1.257539
3194.000000	1.257617
3192.000000	1.257598
3190.000000	1.257619
3188.000000	1.257712
3186.000000	1.257727
3184.000000	1.257767
3182.000000	1.257775
3180.000000	1.257650
3178.000000	1.257654
3176.000000	1.257820
3174.000000	1.257966
3172.000000	1.258036
3170.000000	1.258031
3168.000000	1.258018
3166.000000	1.258071
3164.000000	1.258149
3162.000000	1.258229
3160.000000	1.258282
3158.000000	1.258322
3156.000000	1.258389
3154.000000	1.258409
3152.000000	1.258399
3150.000000	1.258500
3148.000000	1.258566
3146.000000	1.258603
3144.000000	1.258751
3142.000000	1.258783
3140.000000	1.258750
3138.000000	1.258841
3136.000000	1.258949
3134.000000	1.258993
3132.000000	1.259084
3130.000000	1.259197
3128.000000	1.259313
3126.000000	1.259409
3124.000000	1.259408
3122.000000	1.259457
3120.000000	1.259500
3118.000000	1.259463
3116.000000	1.259491
3114.000000	1.259595
3112.000000	1.259689
3110.000000	1.259739
3108.000000	1.259864
3106.000000	1.259947
3104.000000	1.259840
3102.000000	1.259811
3100.000000	1.259846
3098.000000	1.259887
3096.000000	1.259965
3094.000000	1.259889
3092.000000	1.259822
3090.000000	1.259843
3088.000000	1.259831
3086.000000	1.259706
3084.000000	1.259576
3082.000000	1.259565
3080.000000	1.259494
3078.000000	1.259415
3076.000000	1.259500
3074.000000	1.259521
3072.000000	1.259448
3070.000000	1.259324
3068.000000	1.259169
3066.000000	1.259059
3064.000000	1.259058
3062.000000	1.259111
3060.000000	1.259105
3058.000000	1.259030
3056.000000	1.259004
3054.000000	1.259058
3052.000000	1.258960
3050.000000	1.258792
3048.000000	1.258744
3046.000000	1.258719
3044.000000	1.258644
3042.000000	1.258562
3040.000000	1.258542
3038.000000	1.258584
3036.000000	1.258609
3034.000000	1.258567
3032.000000	1.258429
3030.000000	1.258275
3028.000000	1.258068
3026.000000	1.257869
3024.000000	1.257797
3022.000000	1.257892
3020.000000	1.258068
3018.000000	1.258236
3016.000000	1.258503
3014.000000	1.258831
3012.000000	1.258851
3010.000000	1.258655
3008.000000	1.258470
3006.000000	1.258324
3004.000000	1.258254
3002.000000	1.258203
3000.000000	1.258044
2998.000000	1.257835
2996.000000	1.257735
2994.000000	1.257670
2992.000000	1.257661
2990.000000	1.257782
2988.000000	1.257718
2986.000000	1.257516
2984.000000	1.257452
2982.000000	1.257465
2980.000000	1.257497
2978.000000	1.257492
2976.000000	1.257442
2974.000000	1.257283
2972.000000	1.257142
2970.000000	1.257205
2968.000000	1.257530
2966.000000	1.258088
2964.000000	1.258875
2962.000000	1.259676
2960.000000	1.260077
2958.000000	1.259942
2956.000000	1.259472
2954.000000	1.258941
2952.000000	1.258425
2950.000000	1.258040
2948.000000	1.257590
2946.000000	1.257029
2944.000000	1.256533
2942.000000	1.256143
2940.000000	1.255945
2938.000000	1.255883
2936.000000	1.256000
2934.000000	1.256167
2932.000000	1.256220
2930.000000	1.256227
2928.000000	1.256459
2926.000000	1.257035
2924.000000	1.257934
2922.000000	1.258924
2920.000000	1.259610
2918.000000	1.259877
2916.000000	1.259717
2914.000000	1.259351
2912.000000	1.259053
2910.000000	1.258731
2908.000000	1.258356
2906.000000	1.258143
2904.000000	1.258059
2902.000000	1.257950
2900.000000	1.257747
2898.000000	1.257570
2896.000000	1.257480
2894.000000	1.257440
2892.000000	1.257380
2890.000000	1.257287
2888.000000	1.257157
2886.000000	1.256962
2884.000000	1.256734
2882.000000	1.256528
2880.000000	1.256398
2878.000000	1.256173
2876.000000	1.255954
2874.000000	1.255828
2872.000000	1.255554
2870.000000	1.255086
2868.000000	1.254656
2866.000000	1.254474
2864.000000	1.254649
2862.000000	1.255258
2860.000000	1.256084
2858.000000	1.256696
2856.000000	1.256991
2854.000000	1.257196
2852.000000	1.257427
2850.000000	1.257706
2848.000000	1.257861
2846.000000	1.257799
2844.000000	1.257542
2842.000000	1.257180
2840.000000	1.256906
2838.000000	1.256729
2836.000000	1.256606
2834.000000	1.256506
2832.000000	1.256395
2830.000000	1.256337
2828.000000	1.256348
2826.000000	1.256311
2824.000000	1.256227
2822.000000	1.256107
2820.000000	1.256066
2818.000000	1.256082
2816.000000	1.256160
2814.000000	1.256175
2812.000000	1.256099
2810.000000	1.256039
2808.000000	1.255949
2806.000000	1.255861
2804.000000	1.255878
2802.000000	1.255888
2800.000000	1.255786
2798.000000	1.255706
2796.000000	1.255775
2794.000000	1.255865
2792.000000	1.255871
2790.000000	1.255825
2788.000000	1.255860
2786.000000	1.255885
2784.000000	1.255841
2782.000000	1.255818
2780.000000	1.255790
2778.000000	1.255701
2776.000000	1.255681
2774.000000	1.255715
2772.000000	1.255719
2770.000000	1.255763
2768.000000	1.255858
2766.000000	1.255837
2764.000000	1.255671
2762.000000	1.255554
2760.000000	1.255652
2758.000000	1.255722
2756.000000	1.255684
2754.000000	1.255673
2752.000000	1.255688
2750.000000	1.255615
2748.000000	1.255602
2746.000000	1.255665
2744.000000	1.255661
2742.000000	1.255733
2740.000000	1.255870
2738.000000	1.255875
2736.000000	1.255812
2734.000000	1.255796
2732.000000	1.255833
2730.000000	1.255781
2728.000000	1.255718
2726.000000	1.255786
2724.000000	1.255915
2722.000000	1.256010
2720.000000	1.256044
2718.000000	1.255969
2716.000000	1.255926
2714.000000	1.256000
2712.000000	1.256122
2710.000000	1.256240
2708.000000	1.256383
2706.000000	1.256456
2704.000000	1.256426
2702.000000	1.256385
2700.000000	1.256511
2698.000000	1.256688
2696.000000	1.256769
2694.000000	1.256833
2692.000000	1.256933
2690.000000	1.257010
2688.000000	1.257095
2686.000000	1.257261
2684.000000	1.257399
2682.000000	1.257411
2680.000000	1.257355
2678.000000	1.257323
2676.000000	1.257413
2674.000000	1.257526
2672.000000	1.257621
2670.000000	1.257729
2668.000000	1.257892
2666.000000	1.257926
2664.000000	1.257895
2662.000000	1.257959
2660.000000	1.258072
2658.000000	1.258200
2656.000000	1.258336
2654.000000	1.258335
2652.000000	1.258349
2650.000000	1.258477
2648.000000	1.258549
2646.000000	1.258574
2644.000000	1.258623
2642.000000	1.258728
2640.000000	1.258833
2638.000000	1.258838
2636.000000	1.258848
2634.000000	1.258890
2632.000000	1.258953
2630.000000	1.259094
2628.000000	1.259194
2626.000000	1.259170
2624.000000	1.259159
2622.000000	1.259223
2620.000000	1.259303
2618.000000	1.259360
2616.000000	1.259371
2614.000000	1.259298
2612.000000	1.259234
2610.000000	1.259224
2608.000000	1.259294
2606.000000	1.259334
2604.000000	1.259329
2602.000000	1.259366
2600.000000	1.259440
2598.000000	1.259492
2596.000000	1.259562
2594.000000	1.259604
2592.000000	1.259571
2590.000000	1.259581
2588.000000	1.259663
2586.000000	1.259710
2584.000000	1.259758
2582.000000	1.259784
2580.000000	1.259794
2578.000000	1.259849
2576.000000	1.259928
2574.000000	1.259934
2572.000000	1.259922
2570.000000	1.259919
2568.000000	1.259915
2566.000000	1.259940
2564.000000	1.260005
2562.000000	1.260073
2560.000000	1.260110
2558.000000	1.260110
2556.000000	1.260140
2554.000000	1.260140
2552.000000	1.260121
2550.000000	1.260074
2548.000000	1.260095
2546.000000	1.260190
2544.000000	1.260212
2542.000000	1.260206
2540.000000	1.260227
2538.000000	1.260251
2536.000000	1.260290
2534.000000	1.260254
2532.000000	1.260268
2530.000000	1.260259
2528.000000	1.260232
2526.000000	1.260193
2524.000000	1.260148
2522.000000	1.260162
2520.000000	1.260183
2518.000000	1.260167
2516.000000	1.260247
2514.000000	1.260268
2512.000000	1.260178
2510.000000	1.260092
2508.000000	1.260170
2506.000000	1.260256
2504.000000	1.260263
2502.000000	1.260217
2500.000000	1.260126
2498.000000	1.260121
2496.000000	1.260193
2494.000000	1.260229
2492.000000	1.260230
2490.000000	1.260148
2488.000000	1.260145
2486.000000	1.260205
2484.000000	1.260166
2482.000000	1.260127
2480.000000	1.260188
2478.000000	1.260192
2476.000000	1.260150
2474.000000	1.260191
2472.000000	1.260275
2470.000000	1.260284
2468.000000	1.260309
2466.000000	1.260325
2464.000000	1.260341
2462.000000	1.260403
2460.000000	1.260422
2458.000000	1.260366
2456.000000	1.260372
2454.000000	1.260405
2452.000000	1.260403
2450.000000	1.260385
2448.000000	1.260391
2446.000000	1.260371
2444.000000	1.260414
2442.000000	1.260486
2440.000000	1.260526
2438.000000	1.260549
2436.000000	1.260462
2434.000000	1.260373
2432.000000	1.260431
2430.000000	1.260471
2428.000000	1.260463
2426.000000	1.260471
2424.000000	1.260466
2422.000000	1.260506
2420.000000	1.260605
2418.000000	1.260704
2416.000000	1.260813
2414.000000	1.260883
2412.000000	1.260905
2410.000000	1.260853
2408.000000	1.260840
2406.000000	1.260875
2404.000000	1.260861
2402.000000	1.260831
2400.000000	1.260761
2398.000000	1.260635
2396.000000	1.260616
2394.000000	1.260637
2392.000000	1.260613
2390.000000	1.260568
2388.000000	1.260544
2386.000000	1.260519
2384.000000	1.260497
2382.000000	1.260333
2380.000000	1.260027
2378.000000	1.259707
2376.000000	1.259407
2374.000000	1.259119
2372.000000	1.258742
2370.000000	1.258320
2368.000000	1.258024
2366.000000	1.257798
2364.000000	1.257686
2362.000000	1.257858
2360.000000	1.258189
2358.000000	1.258594
2356.000000	1.259149
2354.000000	1.259738
2352.000000	1.260247
2350.000000	1.260200
2348.000000	1.259480
2346.000000	1.258852
2344.000000	1.258721
2342.000000	1.258937
2340.000000	1.259335
2338.000000	1.259465
2336.000000	1.259257
2334.000000	1.259082
2332.000000	1.259164
2330.000000	1.259317
2328.000000	1.259459
2326.000000	1.259499
2324.000000	1.259604
2322.000000	1.259780
2320.000000	1.259946
2318.000000	1.260111
2316.000000	1.260247
2314.000000	1.260239
2312.000000	1.260250
2310.000000	1.260387
2308.000000	1.260468
2306.000000	1.260487
2304.000000	1.260556
2302.000000	1.260580
2300.000000	1.260683
2298.000000	1.260707
2296.000000	1.260697
2294.000000	1.260693
2292.000000	1.260721
2290.000000	1.260669
2288.000000	1.260654
2286.000000	1.260596
2284.000000	1.260685
2282.000000	1.260888
2280.000000	1.260912
2278.000000	1.260839
2276.000000	1.260780
2274.000000	1.260744
2272.000000	1.260717
2270.000000	1.260756
2268.000000	1.260868
2266.000000	1.260836
2264.000000	1.260771
2262.000000	1.260766
2260.000000	1.260763
2258.000000	1.260607
2256.000000	1.260516
2254.000000	1.260623
2252.000000	1.260596
2250.000000	1.260437
2248.000000	1.260398
2246.000000	1.260381
2244.000000	1.260402
2242.000000	1.260431
2240.000000	1.260491
2238.000000	1.260551
2236.000000	1.260507
2234.000000	1.260308
2232.000000	1.260055
2230.000000	1.259915
2228.000000	1.260000
2226.000000	1.260098
2224.000000	1.260048
2222.000000	1.260046
2220.000000	1.260125
2218.000000	1.259969
2216.000000	1.259783
2214.000000	1.259706
2212.000000	1.259736
2210.000000	1.259669
2208.000000	1.259596
2206.000000	1.259557
2204.000000	1.259563
2202.000000	1.259595
2200.000000	1.259617
2198.000000	1.259645
2196.000000	1.259704
2194.000000	1.259543
2192.000000	1.259413
2190.000000	1.259453
2188.000000	1.259470
2186.000000	1.259355
2184.000000	1.259326
2182.000000	1.259281
2180.000000	1.259218
2178.000000	1.259139
2176.000000	1.259100
2174.000000	1.259045
2172.000000	1.258990
2170.000000	1.259013
2168.000000	1.259067
2166.000000	1.259001
2164.000000	1.258850
2162.000000	1.258728
2160.000000	1.258736
2158.000000	1.258707
2156.000000	1.258744
2154.000000	1.258734
2152.000000	1.258671
2150.000000	1.258599
2148.000000	1.258557
2146.000000	1.258453
2144.000000	1.258334
2142.000000	1.258281
2140.000000	1.258361
2138.000000	1.258423
2136.000000	1.258387
2134.000000	1.258258
2132.000000	1.258201
2130.000000	1.258151
2128.000000	1.258110
2126.000000	1.258092
2124.000000	1.258085
2122.000000	1.258021
2120.000000	1.258013
2118.000000	1.258038
2116.000000	1.257977
2114.000000	1.257886
2112.000000	1.257856
2110.000000	1.257880
2108.000000	1.257861
2106.000000	1.257782
2104.000000	1.257806
2102.000000	1.257774
2100.000000	1.257687
2098.000000	1.257685
2096.000000	1.257691
2094.000000	1.257656
2092.000000	1.257659
2090.000000	1.257555
2088.000000	1.257471
2086.000000	1.257436
2084.000000	1.257426
2082.000000	1.257452
2080.000000	1.257492
2078.000000	1.257444
2076.000000	1.257348
2074.000000	1.257371
2072.000000	1.257452
2070.000000	1.257378
2068.000000	1.257362
2066.000000	1.257277
2064.000000	1.257256
2062.000000	1.257304
2060.000000	1.257298
2058.000000	1.257214
2056.000000	1.257135
2054.000000	1.257081
2052.000000	1.257055
2050.000000	1.256982
2048.000000	1.256983
2046.000000	1.256993
2044.000000	1.256913
2042.000000	1.256889
2040.000000	1.257009
2038.000000	1.257034
2036.000000	1.256917
2034.000000	1.256806
2032.000000	1.256748
2030.000000	1.256711
2028.000000	1.256834
2026.000000	1.256824
2024.000000	1.256714
2022.000000	1.256677
2020.000000	1.256597
2018.000000	1.256499
2016.000000	1.256602
2014.000000	1.256625
2012.000000	1.256570
2010.000000	1.256530
2008.000000	1.256547
2006.000000	1.256562
2004.000000	1.256569
2002.000000	1.256526
2000.000000	1.256499
1998.000000	1.256482
1996.000000	1.256456
1994.000000	1.256217
1992.000000	1.256148
1990.000000	1.256313
1988.000000	1.256370
1986.000000	1.256424
1984.000000	1.256396
1982.000000	1.256362
1980.000000	1.256297
1978.000000	1.256251
1976.000000	1.256230
1974.000000	1.256254
1972.000000	1.256263
1970.000000	1.256089
1968.000000	1.256003
1966.000000	1.256184
1964.000000	1.256270
1962.000000	1.256081
1960.000000	1.256012
1958.000000	1.256339
1956.000000	1.256438
1954.000000	1.256281
1952.000000	1.256314
1950.000000	1.256323
1948.000000	1.256228
1946.000000	1.256039
1944.000000	1.255720
1942.000000	1.255903
1940.000000	1.256383
1938.000000	1.256464
1936.000000	1.256535
1934.000000	1.256452
1932.000000	1.256408
1930.000000	1.256422
1928.000000	1.256428
1926.000000	1.256237
1924.000000	1.255999
1922.000000	1.256041
1920.000000	1.255736
1918.000000	1.255757
1916.000000	1.256641
1914.000000	1.256722
1912.000000	1.256537
1910.000000	1.256391
1908.000000	1.256538
1906.000000	1.256646
1904.000000	1.256683
1902.000000	1.256705
1900.000000	1.256827
1898.000000	1.256724
1896.000000	1.256644
1894.000000	1.256771
1892.000000	1.256556
1890.000000	1.256245
1888.000000	1.256786
1886.000000	1.256905
1884.000000	1.256899
1882.000000	1.256947
1880.000000	1.256995
1878.000000	1.256971
1876.000000	1.257106
1874.000000	1.257018
1872.000000	1.256223
1870.000000	1.255157
1868.000000	1.255893
1866.000000	1.256797
1864.000000	1.256971
1862.000000	1.256887
1860.000000	1.256862
1858.000000	1.256792
1856.000000	1.256913
1854.000000	1.256855
1852.000000	1.256855
1850.000000	1.256630
1848.000000	1.256086
1846.000000	1.254363
1844.000000	1.254648
1842.000000	1.256801
1840.000000	1.256917
1838.000000	1.256640
1836.000000	1.256878
1834.000000	1.256792
1832.000000	1.255709
1830.000000	1.255400
1828.000000	1.256251
1826.000000	1.256012
1824.000000	1.256638
1822.000000	1.257100
1820.000000	1.256960
1818.000000	1.256945
1816.000000	1.257177
1814.000000	1.256983
1812.000000	1.256709
1810.000000	1.256886
1808.000000	1.257280
1806.000000	1.257193
1804.000000	1.256656
1802.000000	1.255994
1800.000000	1.256343
1798.000000	1.256741
1796.000000	1.256110
1794.000000	1.254107
1792.000000	1.254648
1790.000000	1.256934
1788.000000	1.257179
1786.000000	1.256411
1784.000000	1.256627
1782.000000	1.256539
1780.000000	1.256684
1778.000000	1.256917
1776.000000	1.255689
1774.000000	1.252993
1772.000000	1.253749
1770.000000	1.255991
1768.000000	1.256480
1766.000000	1.257479
1764.000000	1.256299
1762.000000	1.255684
1760.000000	1.256795
1758.000000	1.256418
1756.000000	1.256751
1754.000000	1.256123
1752.000000	1.254098
1750.000000	1.255222
1748.000000	1.256559
1746.000000	1.256924
1744.000000	1.256702
1742.000000	1.255807
1740.000000	1.255598
1738.000000	1.256217
1736.000000	1.251955
1734.000000	1.251340
1732.000000	1.256794
1730.000000	1.258089
1728.000000	1.258393
1726.000000	1.258327
1724.000000	1.258192
1722.000000	1.257605
1720.000000	1.253791
1718.000000	1.251067
1716.000000	1.255011
1714.000000	1.257909
1712.000000	1.258688
1710.000000	1.258098
1708.000000	1.257108
1706.000000	1.256288
1704.000000	1.256120
1702.000000	1.251088
1700.000000	1.251112
1698.000000	1.253132
1696.000000	1.252952
1694.000000	1.258457
1692.000000	1.259345
1690.000000	1.258323
1688.000000	1.256341
1686.000000	1.250726
1684.000000	1.252651
1682.000000	1.258777
1680.000000	1.259332
1678.000000	1.257844
1676.000000	1.255852
1674.000000	1.257612
1672.000000	1.257111
1670.000000	1.256023
1668.000000	1.258573
1666.000000	1.259490
1664.000000	1.257821
1662.000000	1.258656
1660.000000	1.260137
1658.000000	1.259380
1656.000000	1.253341
1654.000000	1.246216
1652.000000	1.253374
1650.000000	1.259040
1648.000000	1.255353
1646.000000	1.256255
1644.000000	1.260146
1642.000000	1.260696
1640.000000	1.259675
1638.000000	1.256232
1636.000000	1.254429
1634.000000	1.259094
1632.000000	1.261103
1630.000000	1.259934
1628.000000	1.259499
1626.000000	1.259071
1624.000000	1.258229
1622.000000	1.259659
1620.000000	1.258984
1618.000000	1.255129
1616.000000	1.257130
1614.000000	1.260866
1612.000000	1.260540
1610.000000	1.260541
1608.000000	1.261137
1606.000000	1.261965
1604.000000	1.262309
1602.000000	1.262484
1600.000000	1.262355
1598.000000	1.262273
1596.000000	1.262081
1594.000000	1.262096
1592.000000	1.262119
1590.000000	1.262228
1588.000000	1.262235
1586.000000	1.262197
1584.000000	1.262175
1582.000000	1.262312
1580.000000	1.261396
1578.000000	1.257278
1576.000000	1.257256
1574.000000	1.261945
1572.000000	1.260647
1570.000000	1.259256
1568.000000	1.261139
1566.000000	1.261632
1564.000000	1.260623
1562.000000	1.255240
1560.000000	1.248988
1558.000000	1.254352
1556.000000	1.259517
1554.000000	1.260603
1552.000000	1.261922
1550.000000	1.261910
1548.000000	1.261653
1546.000000	1.259850
1544.000000	1.257301
1542.000000	1.253198
1540.000000	1.252908
1538.000000	1.259750
1536.000000	1.261372
1534.000000	1.259560
1532.000000	1.261394
1530.000000	1.261596
1528.000000	1.260062
1526.000000	1.259296
1524.000000	1.257595
1522.000000	1.255246
1520.000000	1.258029
1518.000000	1.259328
1516.000000	1.259994
1514.000000	1.260879
1512.000000	1.260438
1510.000000	1.257916
1508.000000	1.252570
1506.000000	1.254380
1504.000000	1.260276
1502.000000	1.259633
1500.000000	1.256143
1498.000000	1.253561
1496.000000	1.256432
1494.000000	1.262141
1492.000000	1.263276
1490.000000	1.263110
1488.000000	1.263737
1486.000000	1.264051
1484.000000	1.263828
1482.000000	1.263014
1480.000000	1.262549
1478.000000	1.261239
1476.000000	1.259405
1474.000000	1.257245
1472.000000	1.258813
1470.000000	1.261917
1468.000000	1.261534
1466.000000	1.259779
1464.000000	1.260561
1462.000000	1.261218
1460.000000	1.257609
1458.000000	1.252985
1456.000000	1.256043
1454.000000	1.260432
1452.000000	1.261300
1450.000000	1.262373
1448.000000	1.263035
1446.000000	1.263336
1444.000000	1.262689
1442.000000	1.262282
1440.000000	1.261004
1438.000000	1.258186
1436.000000	1.259274
1434.000000	1.261809
1432.000000	1.261214
1430.000000	1.261068
1428.000000	1.261643
1426.000000	1.261465
1424.000000	1.261005
1422.000000	1.259592
1420.000000	1.257346
1418.000000	1.259651
1416.000000	1.261515
1414.000000	1.261514
1412.000000	1.261213
1410.000000	1.260994
1408.000000	1.260381
1406.000000	1.260064
1404.000000	1.260913
1402.000000	1.261628
1400.000000	1.261068
1398.000000	1.261169
1396.000000	1.260639
1394.000000	1.261117
1392.000000	1.261899
1390.000000	1.260846
1388.000000	1.259681
1386.000000	1.260611
1384.000000	1.261601
1382.000000	1.261870
1380.000000	1.261558
1378.000000	1.261152
1376.000000	1.260477
1374.000000	1.260435
1372.000000	1.261077
1370.000000	1.261140
1368.000000	1.261134
1366.000000	1.260855
1364.000000	1.259957
1362.000000	1.260039
1360.000000	1.260585
1358.000000	1.260639
1356.000000	1.260518
1354.000000	1.260565
1352.000000	1.260623
1350.000000	1.260574
1348.000000	1.260497
1346.000000	1.260494
1344.000000	1.260429
1342.000000	1.260052
1340.000000	1.259707
1338.000000	1.260034
1336.000000	1.260326
1334.000000	1.260285
1332.000000	1.260101
1330.000000	1.260019
1328.000000	1.259876
1326.000000	1.259769
1324.000000	1.259711
1322.000000	1.259678
1320.000000	1.259558
1318.000000	1.259428
1316.000000	1.259225
1314.000000	1.259178
1312.000000	1.259269
1310.000000	1.259161
1308.000000	1.259032
1306.000000	1.259052
1304.000000	1.258959
1302.000000	1.259076
1300.000000	1.259044
1298.000000	1.258850
1296.000000	1.258757
1294.000000	1.258715
1292.000000	1.258659
1290.000000	1.258700
1288.000000	1.258577
1286.000000	1.258479
1284.000000	1.258419
1282.000000	1.258458
1280.000000	1.258495
1278.000000	1.258550
1276.000000	1.258544
1274.000000	1.258491
1272.000000	1.258495
1270.000000	1.258695
1268.000000	1.259213
1266.000000	1.260477
1264.000000	1.262575
1262.000000	1.265317
1260.000000	1.267528
1258.000000	1.268226
1256.000000	1.267105
1254.000000	1.265099
1252.000000	1.263192
1250.000000	1.262201
1248.000000	1.261880
1246.000000	1.261654
1244.000000	1.261484
1242.000000	1.261664
1240.000000	1.262018
1238.000000	1.262360
1236.000000	1.262685
1234.000000	1.262903
1232.000000	1.263114
1230.000000	1.263496
1228.000000	1.263844
1226.000000	1.264048
1224.000000	1.264118
1222.000000	1.264473
1220.000000	1.264895
1218.000000	1.265179
1216.000000	1.265166
1214.000000	1.265142
1212.000000	1.265362
1210.000000	1.265761
1208.000000	1.266160
1206.000000	1.266591
1204.000000	1.266849
1202.000000	1.267030
1200.000000	1.267281
1198.000000	1.267709
1196.000000	1.268094
1194.000000	1.268294
1192.000000	1.268692
1190.000000	1.269172
1188.000000	1.269286
1186.000000	1.269496
1184.000000	1.269604
1182.000000	1.269969
1180.000000	1.271082
1178.000000	1.271955
1176.000000	1.272003
1174.000000	1.271838
1172.000000	1.272089
1170.000000	1.272743
1168.000000	1.273372
1166.000000	1.273725
1164.000000	1.274105
1162.000000	1.274396
1160.000000	1.274496
1158.000000	1.274802
1156.000000	1.275238
1154.000000	1.275704
1152.000000	1.276121
1150.000000	1.276572
1148.000000	1.276838
1146.000000	1.277178
1144.000000	1.277544
1142.000000	1.278029
1140.000000	1.278079
1138.000000	1.278028
1136.000000	1.278454
1134.000000	1.278982
1132.000000	1.279073
1130.000000	1.279098
1128.000000	1.279346
1126.000000	1.279803
1124.000000	1.280304
1122.000000	1.280688
1120.000000	1.280730
1118.000000	1.280646
1116.000000	1.280912
1114.000000	1.281439
1112.000000	1.281896
1110.000000	1.282602
1108.000000	1.283195
1106.000000	1.283431
1104.000000	1.283802
1102.000000	1.284911
1100.000000	1.285569
1098.000000	1.285716
1096.000000	1.285701
1094.000000	1.285802
1092.000000	1.285855
1090.000000	1.285925
1088.000000	1.285698
1086.000000	1.285700
1084.000000	1.285601
1082.000000	1.285265
1080.000000	1.285023
1078.000000	1.284977
1076.000000	1.284766
1074.000000	1.284431
1072.000000	1.283493
1070.000000	1.282998
1068.000000	1.282753
1066.000000	1.282580
1064.000000	1.282293
1062.000000	1.281220
1060.000000	1.280632
1058.000000	1.280752
1056.000000	1.279676
1054.000000	1.278181
1052.000000	1.277828
1050.000000	1.278900
1048.000000	1.279728
1046.000000	1.279462
1044.000000	1.278457
1042.000000	1.277878
1040.000000	1.277195
1038.000000	1.276627
1036.000000	1.276235
1034.000000	1.275149
1032.000000	1.274478
1030.000000	1.274530
1028.000000	1.274031
1026.000000	1.273280
1024.000000	1.272504
1022.000000	1.271873
1020.000000	1.271487
1018.000000	1.270635
1016.000000	1.269956
1014.000000	1.270352
1012.000000	1.269424
1010.000000	1.266924
1008.000000	1.264336
1006.000000	1.262661
1004.000000	1.261645
1002.000000	1.260113
1000.000000	1.258426
