PE IR       SUBTECH     SPECTRUM    ASCII       PEDS        4.00        
   -1
TE110A_012_90K.ASC
20/05/14
11:59:13.00
20/05/14
11:59:13.00
Administrator
TE108A.Thursday, May 14 2020, 007.
1000.000000
#HDR
-1
-1
#GR
cm-1
A
1.0
0.0
6000.000000
-2.000000
2501
8
1.307890
1.253903
#DATA
6000.000000	1.287976
5998.000000	1.287308
5996.000000	1.286950
5994.000000	1.286526
5992.000000	1.286832
5990.000000	1.287591
5988.000000	1.287936
5986.000000	1.287657
5984.000000	1.287004
5982.000000	1.286904
5980.000000	1.287180
5978.000000	1.287351
5976.000000	1.287174
5974.000000	1.286698
5972.000000	1.286032
5970.000000	1.285726
5968.000000	1.285587
5966.000000	1.285655
5964.000000	1.285610
5962.000000	1.285657
5960.000000	1.286077
5958.000000	1.286586
5956.000000	1.286722
5954.000000	1.286968
5952.000000	1.287022
5950.000000	1.287315
5948.000000	1.286955
5946.000000	1.286404
5944.000000	1.286353
5942.000000	1.286579
5940.000000	1.286674
5938.000000	1.286299
5936.000000	1.285584
5934.000000	1.285437
5932.000000	1.285562
5930.000000	1.285828
5928.000000	1.286062
5926.000000	1.285855
5924.000000	1.285415
5922.000000	1.285280
5920.000000	1.285361
5918.000000	1.285545
5916.000000	1.285495
5914.000000	1.285442
5912.000000	1.285452
5910.000000	1.285257
5908.000000	1.284679
5906.000000	1.284360
5904.000000	1.284606
5902.000000	1.284912
5900.000000	1.285148
5898.000000	1.284937
5896.000000	1.284733
5894.000000	1.284676
5892.000000	1.284947
5890.000000	1.285455
5888.000000	1.285678
5886.000000	1.285647
5884.000000	1.285397
5882.000000	1.285429
5880.000000	1.285497
5878.000000	1.285356
5876.000000	1.284963
5874.000000	1.284778
5872.000000	1.284965
5870.000000	1.285100
5868.000000	1.284612
5866.000000	1.284200
5864.000000	1.283636
5862.000000	1.283467
5860.000000	1.283364
5858.000000	1.283816
5856.000000	1.284034
5854.000000	1.283910
5852.000000	1.283921
5850.000000	1.284310
5848.000000	1.284153
5846.000000	1.283923
5844.000000	1.283901
5842.000000	1.284460
5840.000000	1.284710
5838.000000	1.284131
5836.000000	1.283879
5834.000000	1.283722
5832.000000	1.284055
5830.000000	1.284768
5828.000000	1.284685
5826.000000	1.284546
5824.000000	1.284230
5822.000000	1.284273
5820.000000	1.283706
5818.000000	1.283001
5816.000000	1.282919
5814.000000	1.283522
5812.000000	1.283831
5810.000000	1.283934
5808.000000	1.284035
5806.000000	1.284477
5804.000000	1.284398
5802.000000	1.284261
5800.000000	1.284145
5798.000000	1.284060
5796.000000	1.284048
5794.000000	1.284113
5792.000000	1.284386
5790.000000	1.284709
5788.000000	1.284140
5786.000000	1.283638
5784.000000	1.283357
5782.000000	1.283568
5780.000000	1.283740
5778.000000	1.283272
5776.000000	1.283075
5774.000000	1.283005
5772.000000	1.282992
5770.000000	1.283217
5768.000000	1.283146
5766.000000	1.283058
5764.000000	1.282878
5762.000000	1.282688
5760.000000	1.282932
5758.000000	1.283353
5756.000000	1.283083
5754.000000	1.282606
5752.000000	1.282359
5750.000000	1.282625
5748.000000	1.282562
5746.000000	1.282091
5744.000000	1.282060
5742.000000	1.282513
5740.000000	1.282378
5738.000000	1.282143
5736.000000	1.281972
5734.000000	1.282037
5732.000000	1.281919
5730.000000	1.281733
5728.000000	1.281762
5726.000000	1.281755
5724.000000	1.281900
5722.000000	1.282311
5720.000000	1.282306
5718.000000	1.281833
5716.000000	1.281389
5714.000000	1.281812
5712.000000	1.282588
5710.000000	1.282874
5708.000000	1.282497
5706.000000	1.282435
5704.000000	1.282619
5702.000000	1.282619
5700.000000	1.282042
5698.000000	1.281499
5696.000000	1.281469
5694.000000	1.281859
5692.000000	1.282016
5690.000000	1.281878
5688.000000	1.281806
5686.000000	1.281896
5684.000000	1.281907
5682.000000	1.281584
5680.000000	1.281432
5678.000000	1.281663
5676.000000	1.281825
5674.000000	1.281716
5672.000000	1.281616
5670.000000	1.281781
5668.000000	1.281969
5666.000000	1.282052
5664.000000	1.281864
5662.000000	1.281516
5660.000000	1.281000
5658.000000	1.280765
5656.000000	1.281047
5654.000000	1.281689
5652.000000	1.281585
5650.000000	1.281227
5648.000000	1.281004
5646.000000	1.281267
5644.000000	1.281578
5642.000000	1.281358
5640.000000	1.280873
5638.000000	1.280898
5636.000000	1.281210
5634.000000	1.281626
5632.000000	1.281445
5630.000000	1.281038
5628.000000	1.281027
5626.000000	1.281362
5624.000000	1.281418
5622.000000	1.281287
5620.000000	1.281122
5618.000000	1.281068
5616.000000	1.280876
5614.000000	1.280767
5612.000000	1.280871
5610.000000	1.281219
5608.000000	1.281368
5606.000000	1.281326
5604.000000	1.280914
5602.000000	1.280482
5600.000000	1.280349
5598.000000	1.280467
5596.000000	1.280564
5594.000000	1.280897
5592.000000	1.281161
5590.000000	1.281186
5588.000000	1.280604
5586.000000	1.280227
5584.000000	1.280340
5582.000000	1.280643
5580.000000	1.280705
5578.000000	1.280395
5576.000000	1.279989
5574.000000	1.280058
5572.000000	1.280197
5570.000000	1.280377
5568.000000	1.280275
5566.000000	1.280251
5564.000000	1.280258
5562.000000	1.280297
5560.000000	1.280205
5558.000000	1.279947
5556.000000	1.279768
5554.000000	1.279896
5552.000000	1.279912
5550.000000	1.279666
5548.000000	1.279162
5546.000000	1.279025
5544.000000	1.279221
5542.000000	1.279525
5540.000000	1.279905
5538.000000	1.280146
5536.000000	1.280048
5534.000000	1.279673
5532.000000	1.279226
5530.000000	1.279356
5528.000000	1.279744
5526.000000	1.279849
5524.000000	1.279671
5522.000000	1.279573
5520.000000	1.279695
5518.000000	1.279998
5516.000000	1.280009
5514.000000	1.279789
5512.000000	1.279327
5510.000000	1.278982
5508.000000	1.278807
5506.000000	1.278524
5504.000000	1.278416
5502.000000	1.278787
5500.000000	1.279216
5498.000000	1.279323
5496.000000	1.278939
5494.000000	1.278762
5492.000000	1.278756
5490.000000	1.278898
5488.000000	1.278883
5486.000000	1.278933
5484.000000	1.279179
5482.000000	1.279543
5480.000000	1.279178
5478.000000	1.278406
5476.000000	1.278165
5474.000000	1.278533
5472.000000	1.278802
5470.000000	1.278769
5468.000000	1.278756
5466.000000	1.279033
5464.000000	1.278778
5462.000000	1.278626
5460.000000	1.278551
5458.000000	1.278754
5456.000000	1.278961
5454.000000	1.278752
5452.000000	1.278161
5450.000000	1.277808
5448.000000	1.277737
5446.000000	1.278088
5444.000000	1.278152
5442.000000	1.278414
5440.000000	1.278396
5438.000000	1.278149
5436.000000	1.278000
5434.000000	1.278000
5432.000000	1.278023
5430.000000	1.277979
5428.000000	1.278146
5426.000000	1.278512
5424.000000	1.278448
5422.000000	1.277991
5420.000000	1.277517
5418.000000	1.277059
5416.000000	1.276868
5414.000000	1.277306
5412.000000	1.277844
5410.000000	1.278244
5408.000000	1.278083
5406.000000	1.278145
5404.000000	1.278346
5402.000000	1.278460
5400.000000	1.278118
5398.000000	1.277433
5396.000000	1.277308
5394.000000	1.277928
5392.000000	1.278613
5390.000000	1.278487
5388.000000	1.277649
5386.000000	1.277326
5384.000000	1.277467
5382.000000	1.277650
5380.000000	1.277022
5378.000000	1.276614
5376.000000	1.276656
5374.000000	1.277271
5372.000000	1.277605
5370.000000	1.277580
5368.000000	1.277061
5366.000000	1.276900
5364.000000	1.277263
5362.000000	1.277592
5360.000000	1.277502
5358.000000	1.277141
5356.000000	1.276877
5354.000000	1.277049
5352.000000	1.277465
5350.000000	1.277399
5348.000000	1.276540
5346.000000	1.276141
5344.000000	1.276554
5342.000000	1.276743
5340.000000	1.276505
5338.000000	1.276872
5336.000000	1.277526
5334.000000	1.277600
5332.000000	1.277017
5330.000000	1.276750
5328.000000	1.276981
5326.000000	1.277363
5324.000000	1.277655
5322.000000	1.277636
5320.000000	1.277299
5318.000000	1.277086
5316.000000	1.277158
5314.000000	1.277337
5312.000000	1.277219
5310.000000	1.276834
5308.000000	1.276710
5306.000000	1.276945
5304.000000	1.276967
5302.000000	1.276835
5300.000000	1.276828
5298.000000	1.277040
5296.000000	1.276904
5294.000000	1.276626
5292.000000	1.276407
5290.000000	1.276279
5288.000000	1.276073
5286.000000	1.276080
5284.000000	1.276250
5282.000000	1.276588
5280.000000	1.276815
5278.000000	1.277058
5276.000000	1.276880
5274.000000	1.276730
5272.000000	1.276496
5270.000000	1.276300
5268.000000	1.276045
5266.000000	1.275729
5264.000000	1.275557
5262.000000	1.275899
5260.000000	1.276470
5258.000000	1.276504
5256.000000	1.276078
5254.000000	1.276046
5252.000000	1.276152
5250.000000	1.275865
5248.000000	1.275557
5246.000000	1.275682
5244.000000	1.275833
5242.000000	1.275844
5240.000000	1.275974
5238.000000	1.276095
5236.000000	1.275911
5234.000000	1.275795
5232.000000	1.275889
5230.000000	1.275943
5228.000000	1.275658
5226.000000	1.275525
5224.000000	1.275807
5222.000000	1.276260
5220.000000	1.276304
5218.000000	1.276213
5216.000000	1.276277
5214.000000	1.276485
5212.000000	1.276280
5210.000000	1.275906
5208.000000	1.275753
5206.000000	1.276011
5204.000000	1.276227
5202.000000	1.276306
5200.000000	1.275964
5198.000000	1.275632
5196.000000	1.275582
5194.000000	1.275788
5192.000000	1.275782
5190.000000	1.275773
5188.000000	1.275635
5186.000000	1.275573
5184.000000	1.275501
5182.000000	1.275506
5180.000000	1.275226
5178.000000	1.275042
5176.000000	1.275186
5174.000000	1.275440
5172.000000	1.275552
5170.000000	1.275773
5168.000000	1.275977
5166.000000	1.276119
5164.000000	1.276106
5162.000000	1.276219
5160.000000	1.276195
5158.000000	1.276022
5156.000000	1.275784
5154.000000	1.275668
5152.000000	1.275727
5150.000000	1.275827
5148.000000	1.275922
5146.000000	1.275858
5144.000000	1.275766
5142.000000	1.275789
5140.000000	1.275884
5138.000000	1.276158
5136.000000	1.276122
5134.000000	1.275792
5132.000000	1.275652
5130.000000	1.275973
5128.000000	1.276187
5126.000000	1.276116
5124.000000	1.276148
5122.000000	1.276211
5120.000000	1.276013
5118.000000	1.275806
5116.000000	1.275673
5114.000000	1.275561
5112.000000	1.275512
5110.000000	1.275507
5108.000000	1.275469
5106.000000	1.275328
5104.000000	1.275292
5102.000000	1.275685
5100.000000	1.276092
5098.000000	1.276119
5096.000000	1.275690
5094.000000	1.275500
5092.000000	1.275606
5090.000000	1.275766
5088.000000	1.275723
5086.000000	1.275573
5084.000000	1.275678
5082.000000	1.276004
5080.000000	1.276207
5078.000000	1.276179
5076.000000	1.276008
5074.000000	1.276083
5072.000000	1.276174
5070.000000	1.276042
5068.000000	1.275616
5066.000000	1.275398
5064.000000	1.275525
5062.000000	1.275776
5060.000000	1.275790
5058.000000	1.275644
5056.000000	1.275334
5054.000000	1.275322
5052.000000	1.275374
5050.000000	1.275501
5048.000000	1.275567
5046.000000	1.275773
5044.000000	1.275845
5042.000000	1.275729
5040.000000	1.275839
5038.000000	1.276081
5036.000000	1.276106
5034.000000	1.276057
5032.000000	1.276133
5030.000000	1.276143
5028.000000	1.275976
5026.000000	1.276069
5024.000000	1.276034
5022.000000	1.275882
5020.000000	1.275611
5018.000000	1.275321
5016.000000	1.275161
5014.000000	1.275441
5012.000000	1.275577
5010.000000	1.275407
5008.000000	1.275252
5006.000000	1.275363
5004.000000	1.275461
5002.000000	1.275660
5000.000000	1.275811
4998.000000	1.275805
4996.000000	1.275665
4994.000000	1.275542
4992.000000	1.275516
4990.000000	1.275736
4988.000000	1.275742
4986.000000	1.275449
4984.000000	1.275146
4982.000000	1.275313
4980.000000	1.275739
4978.000000	1.275998
4976.000000	1.276083
4974.000000	1.276268
4972.000000	1.276279
4970.000000	1.276092
4968.000000	1.276037
4966.000000	1.276060
4964.000000	1.275730
4962.000000	1.275403
4960.000000	1.275354
4958.000000	1.275265
4956.000000	1.275120
4954.000000	1.275420
4952.000000	1.276011
4950.000000	1.276319
4948.000000	1.276212
4946.000000	1.276076
4944.000000	1.276037
4942.000000	1.275915
4940.000000	1.275642
4938.000000	1.275395
4936.000000	1.275222
4934.000000	1.275189
4932.000000	1.275211
4930.000000	1.275269
4928.000000	1.275267
4926.000000	1.275415
4924.000000	1.275541
4922.000000	1.275651
4920.000000	1.275860
4918.000000	1.276173
4916.000000	1.276287
4914.000000	1.276148
4912.000000	1.275916
4910.000000	1.275745
4908.000000	1.275622
4906.000000	1.275598
4904.000000	1.275611
4902.000000	1.275658
4900.000000	1.275527
4898.000000	1.275389
4896.000000	1.275231
4894.000000	1.275261
4892.000000	1.275360
4890.000000	1.275429
4888.000000	1.275526
4886.000000	1.275761
4884.000000	1.275836
4882.000000	1.275798
4880.000000	1.275774
4878.000000	1.275762
4876.000000	1.275651
4874.000000	1.275579
4872.000000	1.275407
4870.000000	1.275271
4868.000000	1.275331
4866.000000	1.275530
4864.000000	1.275616
4862.000000	1.275656
4860.000000	1.275671
4858.000000	1.275832
4856.000000	1.275966
4854.000000	1.276052
4852.000000	1.275923
4850.000000	1.275964
4848.000000	1.276195
4846.000000	1.276242
4844.000000	1.275919
4842.000000	1.275677
4840.000000	1.275665
4838.000000	1.275795
4836.000000	1.276048
4834.000000	1.276161
4832.000000	1.275857
4830.000000	1.275671
4828.000000	1.275866
4826.000000	1.276214
4824.000000	1.276239
4822.000000	1.276043
4820.000000	1.275724
4818.000000	1.275464
4816.000000	1.275320
4814.000000	1.275207
4812.000000	1.274990
4810.000000	1.274829
4808.000000	1.274780
4806.000000	1.275033
4804.000000	1.275230
4802.000000	1.275229
4800.000000	1.275126
4798.000000	1.275323
4796.000000	1.275512
4794.000000	1.275549
4792.000000	1.275440
4790.000000	1.275509
4788.000000	1.275704
4786.000000	1.275688
4784.000000	1.275298
4782.000000	1.275034
4780.000000	1.274937
4778.000000	1.274888
4776.000000	1.274829
4774.000000	1.274991
4772.000000	1.275352
4770.000000	1.275629
4768.000000	1.275601
4766.000000	1.275521
4764.000000	1.275655
4762.000000	1.275948
4760.000000	1.276072
4758.000000	1.276040
4756.000000	1.275924
4754.000000	1.275807
4752.000000	1.275766
4750.000000	1.275988
4748.000000	1.276106
4746.000000	1.275985
4744.000000	1.275764
4742.000000	1.275570
4740.000000	1.275447
4738.000000	1.275337
4736.000000	1.275193
4734.000000	1.275406
4732.000000	1.275710
4730.000000	1.275559
4728.000000	1.275219
4726.000000	1.275303
4724.000000	1.275469
4722.000000	1.275637
4720.000000	1.275819
4718.000000	1.275843
4716.000000	1.275746
4714.000000	1.275630
4712.000000	1.275381
4710.000000	1.275227
4708.000000	1.275368
4706.000000	1.275571
4704.000000	1.275855
4702.000000	1.276053
4700.000000	1.275822
4698.000000	1.275599
4696.000000	1.275644
4694.000000	1.275477
4692.000000	1.275099
4690.000000	1.274995
4688.000000	1.275097
4686.000000	1.275156
4684.000000	1.275043
4682.000000	1.274996
4680.000000	1.275072
4678.000000	1.275140
4676.000000	1.275039
4674.000000	1.275002
4672.000000	1.275049
4670.000000	1.275178
4668.000000	1.275329
4666.000000	1.275574
4664.000000	1.275721
4662.000000	1.275563
4660.000000	1.275253
4658.000000	1.275084
4656.000000	1.274967
4654.000000	1.275049
4652.000000	1.275390
4650.000000	1.275518
4648.000000	1.275025
4646.000000	1.274557
4644.000000	1.274583
4642.000000	1.274611
4640.000000	1.274299
4638.000000	1.274201
4636.000000	1.274423
4634.000000	1.274651
4632.000000	1.274847
4630.000000	1.275083
4628.000000	1.275143
4626.000000	1.275222
4624.000000	1.275321
4622.000000	1.275311
4620.000000	1.275275
4618.000000	1.275388
4616.000000	1.275415
4614.000000	1.275353
4612.000000	1.275300
4610.000000	1.275442
4608.000000	1.275635
4606.000000	1.275577
4604.000000	1.275189
4602.000000	1.274930
4600.000000	1.274959
4598.000000	1.275147
4596.000000	1.275272
4594.000000	1.275310
4592.000000	1.275240
4590.000000	1.275105
4588.000000	1.275044
4586.000000	1.275354
4584.000000	1.275765
4582.000000	1.275914
4580.000000	1.275956
4578.000000	1.275983
4576.000000	1.276005
4574.000000	1.276050
4572.000000	1.276015
4570.000000	1.275914
4568.000000	1.275966
4566.000000	1.275960
4564.000000	1.275872
4562.000000	1.275752
4560.000000	1.275490
4558.000000	1.275191
4556.000000	1.275041
4554.000000	1.275018
4552.000000	1.275022
4550.000000	1.275066
4548.000000	1.275135
4546.000000	1.275096
4544.000000	1.274905
4542.000000	1.275045
4540.000000	1.275351
4538.000000	1.275561
4536.000000	1.275567
4534.000000	1.275433
4532.000000	1.275296
4530.000000	1.275380
4528.000000	1.275375
4526.000000	1.275472
4524.000000	1.275699
4522.000000	1.275684
4520.000000	1.275356
4518.000000	1.275008
4516.000000	1.274728
4514.000000	1.274758
4512.000000	1.274846
4510.000000	1.274777
4508.000000	1.274740
4506.000000	1.274846
4504.000000	1.274995
4502.000000	1.275172
4500.000000	1.275081
4498.000000	1.274857
4496.000000	1.274931
4494.000000	1.275259
4492.000000	1.275262
4490.000000	1.275001
4488.000000	1.274845
4486.000000	1.274936
4484.000000	1.275115
4482.000000	1.275247
4480.000000	1.275138
4478.000000	1.275123
4476.000000	1.275167
4474.000000	1.275097
4472.000000	1.274975
4470.000000	1.274956
4468.000000	1.275028
4466.000000	1.275070
4464.000000	1.274649
4462.000000	1.274198
4460.000000	1.274151
4458.000000	1.274336
4456.000000	1.274528
4454.000000	1.274526
4452.000000	1.274600
4450.000000	1.275239
4448.000000	1.275681
4446.000000	1.275565
4444.000000	1.275584
4442.000000	1.275792
4440.000000	1.275867
4438.000000	1.275893
4436.000000	1.275647
4434.000000	1.275372
4432.000000	1.275308
4430.000000	1.275244
4428.000000	1.275015
4426.000000	1.274850
4424.000000	1.274723
4422.000000	1.274638
4420.000000	1.274591
4418.000000	1.274716
4416.000000	1.274790
4414.000000	1.274944
4412.000000	1.275220
4410.000000	1.275394
4408.000000	1.275419
4406.000000	1.275668
4404.000000	1.275929
4402.000000	1.276014
4400.000000	1.275946
4398.000000	1.275744
4396.000000	1.275360
4394.000000	1.275061
4392.000000	1.274845
4390.000000	1.274591
4388.000000	1.274318
4386.000000	1.274233
4384.000000	1.274382
4382.000000	1.274691
4380.000000	1.274895
4378.000000	1.275032
4376.000000	1.275040
4374.000000	1.275018
4372.000000	1.275096
4370.000000	1.275175
4368.000000	1.274948
4366.000000	1.274716
4364.000000	1.274573
4362.000000	1.274395
4360.000000	1.274293
4358.000000	1.274465
4356.000000	1.274735
4354.000000	1.274953
4352.000000	1.274892
4350.000000	1.275018
4348.000000	1.275477
4346.000000	1.275527
4344.000000	1.275134
4342.000000	1.274869
4340.000000	1.274663
4338.000000	1.274564
4336.000000	1.274265
4334.000000	1.273672
4332.000000	1.273314
4330.000000	1.273412
4328.000000	1.273615
4326.000000	1.273816
4324.000000	1.274059
4322.000000	1.274555
4320.000000	1.275034
4318.000000	1.275174
4316.000000	1.275163
4314.000000	1.275330
4312.000000	1.275300
4310.000000	1.275046
4308.000000	1.274847
4306.000000	1.274723
4304.000000	1.274516
4302.000000	1.274330
4300.000000	1.274123
4298.000000	1.273972
4296.000000	1.273904
4294.000000	1.274023
4292.000000	1.274104
4290.000000	1.273988
4288.000000	1.273885
4286.000000	1.274067
4284.000000	1.274295
4282.000000	1.274522
4280.000000	1.274436
4278.000000	1.274008
4276.000000	1.273859
4274.000000	1.274026
4272.000000	1.274045
4270.000000	1.274033
4268.000000	1.273986
4266.000000	1.274099
4264.000000	1.274324
4262.000000	1.274470
4260.000000	1.274641
4258.000000	1.274810
4256.000000	1.274739
4254.000000	1.274652
4252.000000	1.274640
4250.000000	1.274484
4248.000000	1.274158
4246.000000	1.273887
4244.000000	1.273672
4242.000000	1.273555
4240.000000	1.273375
4238.000000	1.273200
4236.000000	1.273309
4234.000000	1.273505
4232.000000	1.273629
4230.000000	1.273911
4228.000000	1.274356
4226.000000	1.274689
4224.000000	1.274728
4222.000000	1.274611
4220.000000	1.274385
4218.000000	1.274216
4216.000000	1.274249
4214.000000	1.274190
4212.000000	1.273786
4210.000000	1.273493
4208.000000	1.273479
4206.000000	1.273305
4204.000000	1.272948
4202.000000	1.272784
4200.000000	1.272941
4198.000000	1.273354
4196.000000	1.273358
4194.000000	1.273075
4192.000000	1.273184
4190.000000	1.273617
4188.000000	1.273809
4186.000000	1.273528
4184.000000	1.273127
4182.000000	1.273166
4180.000000	1.273328
4178.000000	1.273461
4176.000000	1.273486
4174.000000	1.273373
4172.000000	1.273315
4170.000000	1.273310
4168.000000	1.273062
4166.000000	1.272993
4164.000000	1.273162
4162.000000	1.273094
4160.000000	1.272798
4158.000000	1.272765
4156.000000	1.272734
4154.000000	1.272739
4152.000000	1.272817
4150.000000	1.272556
4148.000000	1.272163
4146.000000	1.272284
4144.000000	1.272327
4142.000000	1.272053
4140.000000	1.271862
4138.000000	1.272012
4136.000000	1.272421
4134.000000	1.272740
4132.000000	1.272812
4130.000000	1.273070
4128.000000	1.273468
4126.000000	1.273863
4124.000000	1.273879
4122.000000	1.273472
4120.000000	1.273225
4118.000000	1.272982
4116.000000	1.272545
4114.000000	1.272154
4112.000000	1.271574
4110.000000	1.271131
4108.000000	1.271009
4106.000000	1.270887
4104.000000	1.270802
4102.000000	1.270840
4100.000000	1.270852
4098.000000	1.270989
4096.000000	1.271482
4094.000000	1.272241
4092.000000	1.272933
4090.000000	1.273388
4088.000000	1.273623
4086.000000	1.273618
4084.000000	1.273772
4082.000000	1.273941
4080.000000	1.273304
4078.000000	1.272675
4076.000000	1.272432
4074.000000	1.271940
4072.000000	1.271471
4070.000000	1.271030
4068.000000	1.270491
4066.000000	1.270403
4064.000000	1.270338
4062.000000	1.270053
4060.000000	1.270560
4058.000000	1.271123
4056.000000	1.271309
4054.000000	1.272320
4052.000000	1.273238
4050.000000	1.273666
4048.000000	1.273788
4046.000000	1.272941
4044.000000	1.272175
4042.000000	1.272044
4040.000000	1.271860
4038.000000	1.271641
4036.000000	1.271328
4034.000000	1.271305
4032.000000	1.271615
4030.000000	1.271453
4028.000000	1.270999
4026.000000	1.270730
4024.000000	1.269994
4022.000000	1.269209
4020.000000	1.268841
4018.000000	1.268592
4016.000000	1.269041
4014.000000	1.269629
4012.000000	1.270023
4010.000000	1.270785
4008.000000	1.271450
4006.000000	1.272304
4004.000000	1.272761
4002.000000	1.272045
4000.000000	1.271510
3998.000000	1.271078
3996.000000	1.269942
3994.000000	1.269521
3992.000000	1.269280
3990.000000	1.268473
3988.000000	1.268610
3986.000000	1.268767
3984.000000	1.268706
3982.000000	1.269591
3980.000000	1.270281
3978.000000	1.270710
3976.000000	1.270978
3974.000000	1.270804
3972.000000	1.270849
3970.000000	1.271032
3968.000000	1.270940
3966.000000	1.270532
3964.000000	1.270167
3962.000000	1.270323
3960.000000	1.270669
3958.000000	1.270456
3956.000000	1.269798
3954.000000	1.269481
3952.000000	1.269340
3950.000000	1.269513
3948.000000	1.269728
3946.000000	1.269113
3944.000000	1.268497
3942.000000	1.269140
3940.000000	1.270002
3938.000000	1.270000
3936.000000	1.269314
3934.000000	1.268547
3932.000000	1.268811
3930.000000	1.269534
3928.000000	1.269263
3926.000000	1.268728
3924.000000	1.268561
3922.000000	1.268289
3920.000000	1.267869
3918.000000	1.268046
3916.000000	1.269037
3914.000000	1.269485
3912.000000	1.268869
3910.000000	1.268314
3908.000000	1.267267
3906.000000	1.265533
3904.000000	1.265229
3902.000000	1.266244
3900.000000	1.267249
3898.000000	1.268559
3896.000000	1.268445
3894.000000	1.266228
3892.000000	1.265522
3890.000000	1.266617
3888.000000	1.266002
3886.000000	1.265742
3884.000000	1.267179
3882.000000	1.267031
3880.000000	1.267211
3878.000000	1.268284
3876.000000	1.267530
3874.000000	1.266086
3872.000000	1.264299
3870.000000	1.264637
3868.000000	1.266893
3866.000000	1.266410
3864.000000	1.266033
3862.000000	1.267402
3860.000000	1.267230
3858.000000	1.263102
3856.000000	1.255910
3854.000000	1.256219
3852.000000	1.265958
3850.000000	1.271145
3848.000000	1.268962
3846.000000	1.266203
3844.000000	1.265135
3842.000000	1.264249
3840.000000	1.261955
3838.000000	1.262367
3836.000000	1.266412
3834.000000	1.267910
3832.000000	1.267264
3830.000000	1.267165
3828.000000	1.266612
3826.000000	1.265795
3824.000000	1.263738
3822.000000	1.262469
3820.000000	1.263885
3818.000000	1.263331
3816.000000	1.264047
3814.000000	1.268340
3812.000000	1.268571
3810.000000	1.264889
3808.000000	1.263152
3806.000000	1.264562
3804.000000	1.263598
3802.000000	1.262336
3800.000000	1.265812
3798.000000	1.267520
3796.000000	1.266624
3794.000000	1.266773
3792.000000	1.266703
3790.000000	1.266392
3788.000000	1.266166
3786.000000	1.265990
3784.000000	1.266002
3782.000000	1.265653
3780.000000	1.265542
3778.000000	1.266489
3776.000000	1.266972
3774.000000	1.266032
3772.000000	1.264468
3770.000000	1.264283
3768.000000	1.265095
3766.000000	1.265318
3764.000000	1.265341
3762.000000	1.264384
3760.000000	1.263523
3758.000000	1.264135
3756.000000	1.262906
3754.000000	1.258479
3752.000000	1.256696
3750.000000	1.260418
3748.000000	1.261768
3746.000000	1.258154
3744.000000	1.261026
3742.000000	1.267328
3740.000000	1.264970
3738.000000	1.260065
3736.000000	1.259857
3734.000000	1.261985
3732.000000	1.263963
3730.000000	1.264928
3728.000000	1.263796
3726.000000	1.262997
3724.000000	1.263380
3722.000000	1.263789
3720.000000	1.264270
3718.000000	1.264283
3716.000000	1.262784
3714.000000	1.260081
3712.000000	1.259921
3710.000000	1.262990
3708.000000	1.265229
3706.000000	1.264928
3704.000000	1.263334
3702.000000	1.262883
3700.000000	1.263911
3698.000000	1.264176
3696.000000	1.263427
3694.000000	1.261995
3692.000000	1.259346
3690.000000	1.257916
3688.000000	1.261434
3686.000000	1.265202
3684.000000	1.264211
3682.000000	1.262095
3680.000000	1.260062
3678.000000	1.256623
3676.000000	1.256403
3674.000000	1.259801
3672.000000	1.259191
3670.000000	1.259394
3668.000000	1.263104
3666.000000	1.263622
3664.000000	1.262238
3662.000000	1.261462
3660.000000	1.260238
3658.000000	1.258692
3656.000000	1.259352
3654.000000	1.259715
3652.000000	1.256255
3650.000000	1.255009
3648.000000	1.259165
3646.000000	1.262527
3644.000000	1.262135
3642.000000	1.260942
3640.000000	1.260518
3638.000000	1.260123
3636.000000	1.259552
3634.000000	1.258701
3632.000000	1.255896
3630.000000	1.253903
3628.000000	1.257850
3626.000000	1.261551
3624.000000	1.260235
3622.000000	1.257507
3620.000000	1.256591
3618.000000	1.258134
3616.000000	1.258709
3614.000000	1.257654
3612.000000	1.257033
3610.000000	1.256891
3608.000000	1.258034
3606.000000	1.259318
3604.000000	1.258831
3602.000000	1.258006
3600.000000	1.258015
3598.000000	1.258107
3596.000000	1.257830
3594.000000	1.257860
3592.000000	1.257491
3590.000000	1.256076
3588.000000	1.256054
3586.000000	1.257861
3584.000000	1.258600
3582.000000	1.258043
3580.000000	1.257730
3578.000000	1.257802
3576.000000	1.257851
3574.000000	1.257762
3572.000000	1.257116
3570.000000	1.255738
3568.000000	1.255348
3566.000000	1.256706
3564.000000	1.257651
3562.000000	1.257455
3560.000000	1.257259
3558.000000	1.257412
3556.000000	1.257384
3554.000000	1.257200
3552.000000	1.257416
3550.000000	1.257488
3548.000000	1.257115
3546.000000	1.257268
3544.000000	1.257849
3542.000000	1.258023
3540.000000	1.257757
3538.000000	1.257483
3536.000000	1.257381
3534.000000	1.257464
3532.000000	1.257450
3530.000000	1.257295
3528.000000	1.257386
3526.000000	1.257513
3524.000000	1.257768
3522.000000	1.258326
3520.000000	1.258521
3518.000000	1.258445
3516.000000	1.258686
3514.000000	1.258890
3512.000000	1.258929
3510.000000	1.259072
3508.000000	1.259161
3506.000000	1.259112
3504.000000	1.259182
3502.000000	1.259454
3500.000000	1.259781
3498.000000	1.259988
3496.000000	1.260264
3494.000000	1.260695
3492.000000	1.260874
3490.000000	1.260937
3488.000000	1.261297
3486.000000	1.261631
3484.000000	1.261658
3482.000000	1.261664
3480.000000	1.262157
3478.000000	1.262847
3476.000000	1.263131
3474.000000	1.263182
3472.000000	1.263380
3470.000000	1.263718
3468.000000	1.264165
3466.000000	1.264638
3464.000000	1.264942
3462.000000	1.265429
3460.000000	1.266038
3458.000000	1.266466
3456.000000	1.266820
3454.000000	1.267016
3452.000000	1.267232
3450.000000	1.267501
3448.000000	1.267615
3446.000000	1.267943
3444.000000	1.268435
3442.000000	1.268815
3440.000000	1.269192
3438.000000	1.269476
3436.000000	1.269965
3434.000000	1.270654
3432.000000	1.271233
3430.000000	1.271741
3428.000000	1.272240
3426.000000	1.272712
3424.000000	1.273212
3422.000000	1.273739
3420.000000	1.274060
3418.000000	1.274198
3416.000000	1.274403
3414.000000	1.274728
3412.000000	1.275071
3410.000000	1.275093
3408.000000	1.275143
3406.000000	1.275472
3404.000000	1.275796
3402.000000	1.276038
3400.000000	1.276281
3398.000000	1.276598
3396.000000	1.276928
3394.000000	1.277167
3392.000000	1.277442
3390.000000	1.277642
3388.000000	1.277888
3386.000000	1.278173
3384.000000	1.278285
3382.000000	1.278472
3380.000000	1.278688
3378.000000	1.278771
3376.000000	1.278826
3374.000000	1.278865
3372.000000	1.278895
3370.000000	1.278991
3368.000000	1.279116
3366.000000	1.279240
3364.000000	1.279564
3362.000000	1.279771
3360.000000	1.279894
3358.000000	1.280069
3356.000000	1.279998
3354.000000	1.279929
3352.000000	1.279974
3350.000000	1.280128
3348.000000	1.280321
3346.000000	1.280322
3344.000000	1.280370
3342.000000	1.280443
3340.000000	1.280486
3338.000000	1.280663
3336.000000	1.280959
3334.000000	1.281096
3332.000000	1.281245
3330.000000	1.281413
3328.000000	1.281453
3326.000000	1.281512
3324.000000	1.281443
3322.000000	1.281375
3320.000000	1.281604
3318.000000	1.281746
3316.000000	1.281788
3314.000000	1.281843
3312.000000	1.281875
3310.000000	1.281897
3308.000000	1.281761
3306.000000	1.281718
3304.000000	1.281932
3302.000000	1.282152
3300.000000	1.282347
3298.000000	1.282391
3296.000000	1.282468
3294.000000	1.282551
3292.000000	1.282577
3290.000000	1.282760
3288.000000	1.282845
3286.000000	1.282773
3284.000000	1.282793
3282.000000	1.282745
3280.000000	1.282694
3278.000000	1.282632
3276.000000	1.282602
3274.000000	1.282710
3272.000000	1.282740
3270.000000	1.282651
3268.000000	1.282835
3266.000000	1.283071
3264.000000	1.283038
3262.000000	1.283004
3260.000000	1.283051
3258.000000	1.282966
3256.000000	1.283004
3254.000000	1.282967
3252.000000	1.282898
3250.000000	1.282920
3248.000000	1.282935
3246.000000	1.283066
3244.000000	1.283287
3242.000000	1.283412
3240.000000	1.283494
3238.000000	1.283693
3236.000000	1.283845
3234.000000	1.283790
3232.000000	1.283897
3230.000000	1.284143
3228.000000	1.284279
3226.000000	1.284083
3224.000000	1.283956
3222.000000	1.284017
3220.000000	1.284055
3218.000000	1.284137
3216.000000	1.283998
3214.000000	1.283825
3212.000000	1.283957
3210.000000	1.284147
3208.000000	1.284269
3206.000000	1.284210
3204.000000	1.284127
3202.000000	1.284240
3200.000000	1.284554
3198.000000	1.284701
3196.000000	1.284509
3194.000000	1.284386
3192.000000	1.284469
3190.000000	1.284455
3188.000000	1.284452
3186.000000	1.284385
3184.000000	1.284298
3182.000000	1.284262
3180.000000	1.284269
3178.000000	1.284304
3176.000000	1.284308
3174.000000	1.284367
3172.000000	1.284447
3170.000000	1.284442
3168.000000	1.284463
3166.000000	1.284436
3164.000000	1.284559
3162.000000	1.284662
3160.000000	1.284491
3158.000000	1.284407
3156.000000	1.284606
3154.000000	1.284734
3152.000000	1.284807
3150.000000	1.284940
3148.000000	1.285093
3146.000000	1.285124
3144.000000	1.285155
3142.000000	1.285176
3140.000000	1.285130
3138.000000	1.285212
3136.000000	1.285377
3134.000000	1.285343
3132.000000	1.285372
3130.000000	1.285423
3128.000000	1.285496
3126.000000	1.285521
3124.000000	1.285448
3122.000000	1.285395
3120.000000	1.285353
3118.000000	1.285332
3116.000000	1.285378
3114.000000	1.285356
3112.000000	1.285337
3110.000000	1.285516
3108.000000	1.285621
3106.000000	1.285389
3104.000000	1.285244
3102.000000	1.285288
3100.000000	1.285403
3098.000000	1.285456
3096.000000	1.285422
3094.000000	1.285332
3092.000000	1.285199
3090.000000	1.284959
3088.000000	1.284773
3086.000000	1.284578
3084.000000	1.284527
3082.000000	1.284615
3080.000000	1.284710
3078.000000	1.284659
3076.000000	1.284528
3074.000000	1.284542
3072.000000	1.284596
3070.000000	1.284312
3068.000000	1.284050
3066.000000	1.284086
3064.000000	1.284340
3062.000000	1.284368
3060.000000	1.284118
3058.000000	1.283819
3056.000000	1.283814
3054.000000	1.284053
3052.000000	1.284070
3050.000000	1.283888
3048.000000	1.283764
3046.000000	1.283564
3044.000000	1.283442
3042.000000	1.283343
3040.000000	1.283393
3038.000000	1.283447
3036.000000	1.283291
3034.000000	1.283200
3032.000000	1.283133
3030.000000	1.282921
3028.000000	1.282827
3026.000000	1.282643
3024.000000	1.282394
3022.000000	1.282323
3020.000000	1.282632
3018.000000	1.283000
3016.000000	1.283184
3014.000000	1.283318
3012.000000	1.283437
3010.000000	1.283369
3008.000000	1.283342
3006.000000	1.283268
3004.000000	1.283002
3002.000000	1.282714
3000.000000	1.282546
2998.000000	1.282415
2996.000000	1.282528
2994.000000	1.282478
2992.000000	1.282273
2990.000000	1.282288
2988.000000	1.282301
2986.000000	1.282246
2984.000000	1.282226
2982.000000	1.282085
2980.000000	1.282052
2978.000000	1.282021
2976.000000	1.282015
2974.000000	1.282066
2972.000000	1.282121
2970.000000	1.282114
2968.000000	1.282228
2966.000000	1.282647
2964.000000	1.283316
2962.000000	1.284069
2960.000000	1.284624
2958.000000	1.284556
2956.000000	1.283981
2954.000000	1.283467
2952.000000	1.283154
2950.000000	1.282752
2948.000000	1.282056
2946.000000	1.281385
2944.000000	1.280937
2942.000000	1.280535
2940.000000	1.280304
2938.000000	1.280276
2936.000000	1.280435
2934.000000	1.280582
2932.000000	1.280530
2930.000000	1.280333
2928.000000	1.280545
2926.000000	1.281308
2924.000000	1.282337
2922.000000	1.283108
2920.000000	1.283587
2918.000000	1.283910
2916.000000	1.284069
2914.000000	1.283916
2912.000000	1.283508
2910.000000	1.283021
2908.000000	1.282610
2906.000000	1.282394
2904.000000	1.282293
2902.000000	1.282109
2900.000000	1.281840
2898.000000	1.281654
2896.000000	1.281613
2894.000000	1.281484
2892.000000	1.281211
2890.000000	1.280931
2888.000000	1.280857
2886.000000	1.280752
2884.000000	1.280601
2882.000000	1.280442
2880.000000	1.280383
2878.000000	1.280311
2876.000000	1.280044
2874.000000	1.279541
2872.000000	1.279133
2870.000000	1.278877
2868.000000	1.278543
2866.000000	1.278158
2864.000000	1.278101
2862.000000	1.278515
2860.000000	1.279535
2858.000000	1.280250
2856.000000	1.280373
2854.000000	1.280491
2852.000000	1.280783
2850.000000	1.281233
2848.000000	1.281609
2846.000000	1.281405
2844.000000	1.280966
2842.000000	1.280657
2840.000000	1.280437
2838.000000	1.280251
2836.000000	1.280202
2834.000000	1.280135
2832.000000	1.280117
2830.000000	1.280050
2828.000000	1.279938
2826.000000	1.279814
2824.000000	1.279848
2822.000000	1.280002
2820.000000	1.279977
2818.000000	1.279763
2816.000000	1.279801
2814.000000	1.280021
2812.000000	1.280090
2810.000000	1.279727
2808.000000	1.279388
2806.000000	1.279486
2804.000000	1.279583
2802.000000	1.279468
2800.000000	1.279390
2798.000000	1.279256
2796.000000	1.279355
2794.000000	1.279465
2792.000000	1.279331
2790.000000	1.279336
2788.000000	1.279471
2786.000000	1.279553
2784.000000	1.279508
2782.000000	1.279385
2780.000000	1.279438
2778.000000	1.279434
2776.000000	1.279375
2774.000000	1.279193
2772.000000	1.279006
2770.000000	1.279043
2768.000000	1.279179
2766.000000	1.279054
2764.000000	1.278825
2762.000000	1.278726
2760.000000	1.278803
2758.000000	1.278845
2756.000000	1.278847
2754.000000	1.278822
2752.000000	1.278744
2750.000000	1.278788
2748.000000	1.278938
2746.000000	1.278872
2744.000000	1.278912
2742.000000	1.279084
2740.000000	1.279089
2738.000000	1.278995
2736.000000	1.278981
2734.000000	1.279067
2732.000000	1.279190
2730.000000	1.279251
2728.000000	1.279130
2726.000000	1.279034
2724.000000	1.279273
2722.000000	1.279485
2720.000000	1.279539
2718.000000	1.279386
2716.000000	1.279299
2714.000000	1.279474
2712.000000	1.279488
2710.000000	1.279472
2708.000000	1.279480
2706.000000	1.279363
2704.000000	1.279573
2702.000000	1.279818
2700.000000	1.279975
2698.000000	1.279966
2696.000000	1.279924
2694.000000	1.279960
2692.000000	1.279969
2690.000000	1.280173
2688.000000	1.280401
2686.000000	1.280275
2684.000000	1.280376
2682.000000	1.280475
2680.000000	1.280477
2678.000000	1.280553
2676.000000	1.280595
2674.000000	1.280650
2672.000000	1.280520
2670.000000	1.280506
2668.000000	1.280664
2666.000000	1.280762
2664.000000	1.281050
2662.000000	1.281014
2660.000000	1.280902
2658.000000	1.281238
2656.000000	1.281585
2654.000000	1.281705
2652.000000	1.281779
2650.000000	1.281763
2648.000000	1.281960
2646.000000	1.282282
2644.000000	1.282334
2642.000000	1.282161
2640.000000	1.282112
2638.000000	1.282178
2636.000000	1.282366
2634.000000	1.282270
2632.000000	1.282291
2630.000000	1.282636
2628.000000	1.282651
2626.000000	1.282715
2624.000000	1.282839
2622.000000	1.282786
2620.000000	1.283109
2618.000000	1.283233
2616.000000	1.282783
2614.000000	1.282562
2612.000000	1.282883
2610.000000	1.283246
2608.000000	1.283280
2606.000000	1.282946
2604.000000	1.282861
2602.000000	1.283097
2600.000000	1.283445
2598.000000	1.283377
2596.000000	1.283173
2594.000000	1.283400
2592.000000	1.283813
2590.000000	1.283821
2588.000000	1.283631
2586.000000	1.283651
2584.000000	1.283700
2582.000000	1.283671
2580.000000	1.283263
2578.000000	1.282860
2576.000000	1.283015
2574.000000	1.283286
2572.000000	1.283366
2570.000000	1.282842
2568.000000	1.282715
2566.000000	1.283011
2564.000000	1.283284
2562.000000	1.283286
2560.000000	1.282956
2558.000000	1.282900
2556.000000	1.283537
2554.000000	1.283767
2552.000000	1.283448
2550.000000	1.283286
2548.000000	1.283228
2546.000000	1.283211
2544.000000	1.282882
2542.000000	1.282390
2540.000000	1.282715
2538.000000	1.282766
2536.000000	1.282409
2534.000000	1.282328
2532.000000	1.282229
2530.000000	1.282799
2528.000000	1.283539
2526.000000	1.283046
2524.000000	1.282930
2522.000000	1.283212
2520.000000	1.283523
2518.000000	1.283605
2516.000000	1.283018
2514.000000	1.282546
2512.000000	1.282767
2510.000000	1.282837
2508.000000	1.282819
2506.000000	1.282845
2504.000000	1.283090
2502.000000	1.283474
2500.000000	1.283510
2498.000000	1.283229
2496.000000	1.283449
2494.000000	1.283732
2492.000000	1.283515
2490.000000	1.283094
2488.000000	1.282679
2486.000000	1.282424
2484.000000	1.282743
2482.000000	1.282762
2480.000000	1.282526
2478.000000	1.282311
2476.000000	1.282786
2474.000000	1.283530
2472.000000	1.283707
2470.000000	1.283819
2468.000000	1.284127
2466.000000	1.284069
2464.000000	1.284098
2462.000000	1.283818
2460.000000	1.283297
2458.000000	1.283072
2456.000000	1.282913
2454.000000	1.282802
2452.000000	1.282479
2450.000000	1.282426
2448.000000	1.282435
2446.000000	1.282190
2444.000000	1.282341
2442.000000	1.282167
2440.000000	1.282374
2438.000000	1.283029
2436.000000	1.283301
2434.000000	1.283087
2432.000000	1.282631
2430.000000	1.282226
2428.000000	1.282439
2426.000000	1.282026
2424.000000	1.281513
2422.000000	1.281292
2420.000000	1.280885
2418.000000	1.281371
2416.000000	1.282047
2414.000000	1.281801
2412.000000	1.281901
2410.000000	1.282194
2408.000000	1.282086
2406.000000	1.282042
2404.000000	1.281707
2402.000000	1.280798
2400.000000	1.280665
2398.000000	1.280502
2396.000000	1.280191
2394.000000	1.280183
2392.000000	1.280056
2390.000000	1.280257
2388.000000	1.280412
2386.000000	1.280476
2384.000000	1.280865
2382.000000	1.281346
2380.000000	1.282055
2378.000000	1.283205
2376.000000	1.283642
2374.000000	1.283447
2372.000000	1.283489
2370.000000	1.283229
2368.000000	1.283028
2366.000000	1.283010
2364.000000	1.282796
2362.000000	1.283194
2360.000000	1.284118
2358.000000	1.284564
2356.000000	1.285302
2354.000000	1.285938
2352.000000	1.286272
2350.000000	1.286332
2348.000000	1.285796
2346.000000	1.285457
2344.000000	1.285804
2342.000000	1.286129
2340.000000	1.286505
2338.000000	1.286793
2336.000000	1.286389
2334.000000	1.285891
2332.000000	1.285715
2330.000000	1.285430
2328.000000	1.285650
2326.000000	1.285961
2324.000000	1.285802
2322.000000	1.285714
2320.000000	1.285526
2318.000000	1.285264
2316.000000	1.285653
2314.000000	1.285461
2312.000000	1.285147
2310.000000	1.285189
2308.000000	1.284836
2306.000000	1.284762
2304.000000	1.284559
2302.000000	1.283841
2300.000000	1.283853
2298.000000	1.284104
2296.000000	1.284148
2294.000000	1.284242
2292.000000	1.284407
2290.000000	1.284535
2288.000000	1.284905
2286.000000	1.285003
2284.000000	1.284956
2282.000000	1.285166
2280.000000	1.285299
2278.000000	1.285063
2276.000000	1.284757
2274.000000	1.284408
2272.000000	1.284287
2270.000000	1.284261
2268.000000	1.283966
2266.000000	1.283562
2264.000000	1.283541
2262.000000	1.283709
2260.000000	1.284003
2258.000000	1.284198
2256.000000	1.283890
2254.000000	1.283549
2252.000000	1.283790
2250.000000	1.283237
2248.000000	1.282958
2246.000000	1.283016
2244.000000	1.282608
2242.000000	1.282864
2240.000000	1.283381
2238.000000	1.283256
2236.000000	1.283551
2234.000000	1.284053
2232.000000	1.283743
2230.000000	1.283652
2228.000000	1.283365
2226.000000	1.283105
2224.000000	1.283901
2222.000000	1.283089
2220.000000	1.282007
2218.000000	1.281733
2216.000000	1.281118
2214.000000	1.281271
2212.000000	1.280660
2210.000000	1.279787
2208.000000	1.280376
2206.000000	1.280966
2204.000000	1.281415
2202.000000	1.281800
2200.000000	1.282039
2198.000000	1.282751
2196.000000	1.283128
2194.000000	1.282874
2192.000000	1.282401
2190.000000	1.282517
2188.000000	1.282907
2186.000000	1.281598
2184.000000	1.280352
2182.000000	1.280118
2180.000000	1.280021
2178.000000	1.280096
2176.000000	1.279740
2174.000000	1.279813
2172.000000	1.280185
2170.000000	1.280495
2168.000000	1.280876
2166.000000	1.280818
2164.000000	1.281366
2162.000000	1.281660
2160.000000	1.281097
2158.000000	1.280652
2156.000000	1.280870
2154.000000	1.281196
2152.000000	1.281307
2150.000000	1.280591
2148.000000	1.279667
2146.000000	1.279805
2144.000000	1.280257
2142.000000	1.279960
2140.000000	1.279587
2138.000000	1.279207
2136.000000	1.279320
2134.000000	1.279855
2132.000000	1.279642
2130.000000	1.279427
2128.000000	1.279652
2126.000000	1.279506
2124.000000	1.279465
2122.000000	1.279238
2120.000000	1.279374
2118.000000	1.279755
2116.000000	1.280029
2114.000000	1.279755
2112.000000	1.279435
2110.000000	1.279901
2108.000000	1.280125
2106.000000	1.279996
2104.000000	1.279790
2102.000000	1.279348
2100.000000	1.279432
2098.000000	1.279469
2096.000000	1.278979
2094.000000	1.278346
2092.000000	1.278394
2090.000000	1.278440
2088.000000	1.278265
2086.000000	1.277992
2084.000000	1.277970
2082.000000	1.278098
2080.000000	1.278243
2078.000000	1.278242
2076.000000	1.278156
2074.000000	1.278149
2072.000000	1.278473
2070.000000	1.278488
2068.000000	1.278442
2066.000000	1.278368
2064.000000	1.278545
2062.000000	1.278518
2060.000000	1.277989
2058.000000	1.277745
2056.000000	1.277578
2054.000000	1.277300
2052.000000	1.277302
2050.000000	1.277026
2048.000000	1.276840
2046.000000	1.277031
2044.000000	1.277297
2042.000000	1.277154
2040.000000	1.277138
2038.000000	1.277468
2036.000000	1.277648
2034.000000	1.277666
2032.000000	1.277756
2030.000000	1.277659
2028.000000	1.277808
2026.000000	1.277863
2024.000000	1.277715
2022.000000	1.277405
2020.000000	1.277324
2018.000000	1.277218
2016.000000	1.277274
2014.000000	1.277566
2012.000000	1.277582
2010.000000	1.277630
2008.000000	1.277978
2006.000000	1.277890
2004.000000	1.277723
2002.000000	1.277303
2000.000000	1.277016
1998.000000	1.277040
1996.000000	1.276845
1994.000000	1.276400
1992.000000	1.276293
1990.000000	1.276362
1988.000000	1.276469
1986.000000	1.276646
1984.000000	1.276990
1982.000000	1.277232
1980.000000	1.277333
1978.000000	1.277112
1976.000000	1.276962
1974.000000	1.276968
1972.000000	1.277068
1970.000000	1.276859
1968.000000	1.276424
1966.000000	1.276241
1964.000000	1.276078
1962.000000	1.275808
1960.000000	1.275815
1958.000000	1.275983
1956.000000	1.275959
1954.000000	1.275744
1952.000000	1.275831
1950.000000	1.276068
1948.000000	1.276241
1946.000000	1.276081
1944.000000	1.276016
1942.000000	1.276365
1940.000000	1.276926
1938.000000	1.277095
1936.000000	1.276966
1934.000000	1.276834
1932.000000	1.276934
1930.000000	1.276638
1928.000000	1.276490
1926.000000	1.276455
1924.000000	1.276051
1922.000000	1.275885
1920.000000	1.275642
1918.000000	1.275657
1916.000000	1.276767
1914.000000	1.276845
1912.000000	1.276547
1910.000000	1.276448
1908.000000	1.276642
1906.000000	1.276751
1904.000000	1.276769
1902.000000	1.276675
1900.000000	1.276665
1898.000000	1.276417
1896.000000	1.276499
1894.000000	1.276602
1892.000000	1.276446
1890.000000	1.276359
1888.000000	1.276987
1886.000000	1.277049
1884.000000	1.276952
1882.000000	1.276774
1880.000000	1.276975
1878.000000	1.277079
1876.000000	1.276949
1874.000000	1.276922
1872.000000	1.276300
1870.000000	1.275211
1868.000000	1.276223
1866.000000	1.276852
1864.000000	1.276651
1862.000000	1.276706
1860.000000	1.276680
1858.000000	1.276581
1856.000000	1.276727
1854.000000	1.276793
1852.000000	1.276936
1850.000000	1.276716
1848.000000	1.276377
1846.000000	1.275011
1844.000000	1.275702
1842.000000	1.277822
1840.000000	1.277577
1838.000000	1.276931
1836.000000	1.277078
1834.000000	1.276946
1832.000000	1.275695
1830.000000	1.275536
1828.000000	1.276413
1826.000000	1.275977
1824.000000	1.276636
1822.000000	1.277053
1820.000000	1.276987
1818.000000	1.276923
1816.000000	1.277050
1814.000000	1.276817
1812.000000	1.276505
1810.000000	1.276721
1808.000000	1.277088
1806.000000	1.276834
1804.000000	1.276264
1802.000000	1.275525
1800.000000	1.276137
1798.000000	1.276731
1796.000000	1.276051
1794.000000	1.274234
1792.000000	1.274988
1790.000000	1.277164
1788.000000	1.277149
1786.000000	1.276284
1784.000000	1.276566
1782.000000	1.276452
1780.000000	1.276654
1778.000000	1.276911
1776.000000	1.275728
1774.000000	1.273116
1772.000000	1.274302
1770.000000	1.276298
1768.000000	1.276327
1766.000000	1.277237
1764.000000	1.275941
1762.000000	1.275591
1760.000000	1.277027
1758.000000	1.276403
1756.000000	1.276749
1754.000000	1.276258
1752.000000	1.274440
1750.000000	1.275841
1748.000000	1.277267
1746.000000	1.277407
1744.000000	1.277272
1742.000000	1.276515
1740.000000	1.276237
1738.000000	1.276680
1736.000000	1.272571
1734.000000	1.272579
1732.000000	1.277823
1730.000000	1.278225
1728.000000	1.278408
1726.000000	1.278564
1724.000000	1.278333
1722.000000	1.277699
1720.000000	1.274152
1718.000000	1.272008
1716.000000	1.276320
1714.000000	1.278588
1712.000000	1.278724
1710.000000	1.278219
1708.000000	1.277540
1706.000000	1.276813
1704.000000	1.276893
1702.000000	1.271952
1700.000000	1.272648
1698.000000	1.274749
1696.000000	1.274285
1694.000000	1.279511
1692.000000	1.279986
1690.000000	1.278801
1688.000000	1.276833
1686.000000	1.271624
1684.000000	1.274411
1682.000000	1.280248
1680.000000	1.280053
1678.000000	1.278258
1676.000000	1.276474
1674.000000	1.278557
1672.000000	1.277914
1670.000000	1.276824
1668.000000	1.279295
1666.000000	1.279917
1664.000000	1.278455
1662.000000	1.279422
1660.000000	1.280630
1658.000000	1.279827
1656.000000	1.274310
1654.000000	1.268485
1652.000000	1.276446
1650.000000	1.280938
1648.000000	1.276775
1646.000000	1.277947
1644.000000	1.281298
1642.000000	1.281010
1640.000000	1.279749
1638.000000	1.276405
1636.000000	1.275246
1634.000000	1.280027
1632.000000	1.281540
1630.000000	1.280205
1628.000000	1.279816
1626.000000	1.279501
1624.000000	1.278924
1622.000000	1.280259
1620.000000	1.279501
1618.000000	1.276111
1616.000000	1.278367
1614.000000	1.281580
1612.000000	1.280947
1610.000000	1.281130
1608.000000	1.281986
1606.000000	1.282560
1604.000000	1.282655
1602.000000	1.282896
1600.000000	1.283077
1598.000000	1.282784
1596.000000	1.282336
1594.000000	1.282381
1592.000000	1.282331
1590.000000	1.282091
1588.000000	1.281931
1586.000000	1.281824
1584.000000	1.281783
1582.000000	1.282018
1580.000000	1.281098
1578.000000	1.277306
1576.000000	1.278462
1574.000000	1.283172
1572.000000	1.281345
1570.000000	1.280203
1568.000000	1.282128
1566.000000	1.282453
1564.000000	1.281600
1562.000000	1.276143
1560.000000	1.270778
1558.000000	1.276717
1556.000000	1.280881
1554.000000	1.281151
1552.000000	1.281921
1550.000000	1.281643
1548.000000	1.281429
1546.000000	1.279826
1544.000000	1.277871
1542.000000	1.274404
1540.000000	1.274592
1538.000000	1.281077
1536.000000	1.281851
1534.000000	1.279828
1532.000000	1.281673
1530.000000	1.281735
1528.000000	1.280206
1526.000000	1.279536
1524.000000	1.278171
1522.000000	1.276473
1520.000000	1.279769
1518.000000	1.280703
1516.000000	1.280895
1514.000000	1.281203
1512.000000	1.280709
1510.000000	1.278227
1508.000000	1.273310
1506.000000	1.275703
1504.000000	1.280827
1502.000000	1.279203
1500.000000	1.275841
1498.000000	1.273134
1496.000000	1.275832
1494.000000	1.281508
1492.000000	1.282748
1490.000000	1.282850
1488.000000	1.283602
1486.000000	1.283917
1484.000000	1.283883
1482.000000	1.283244
1480.000000	1.283023
1478.000000	1.281633
1476.000000	1.279879
1474.000000	1.278552
1472.000000	1.280595
1470.000000	1.282686
1468.000000	1.281788
1466.000000	1.280397
1464.000000	1.281399
1462.000000	1.281745
1460.000000	1.277962
1458.000000	1.273771
1456.000000	1.277331
1454.000000	1.281271
1452.000000	1.281509
1450.000000	1.282325
1448.000000	1.283210
1446.000000	1.283540
1444.000000	1.282666
1442.000000	1.282127
1440.000000	1.280860
1438.000000	1.278547
1436.000000	1.280071
1434.000000	1.282144
1432.000000	1.281351
1430.000000	1.281089
1428.000000	1.281792
1426.000000	1.281559
1424.000000	1.280583
1422.000000	1.278954
1420.000000	1.277342
1418.000000	1.279881
1416.000000	1.281208
1414.000000	1.280709
1412.000000	1.280191
1410.000000	1.279962
1408.000000	1.279766
1406.000000	1.279336
1404.000000	1.279826
1402.000000	1.280591
1400.000000	1.280275
1398.000000	1.280510
1396.000000	1.280194
1394.000000	1.280720
1392.000000	1.281543
1390.000000	1.280470
1388.000000	1.279255
1386.000000	1.280063
1384.000000	1.281324
1382.000000	1.281607
1380.000000	1.281040
1378.000000	1.280577
1376.000000	1.279947
1374.000000	1.280006
1372.000000	1.280527
1370.000000	1.280126
1368.000000	1.279868
1366.000000	1.279659
1364.000000	1.279175
1362.000000	1.279385
1360.000000	1.279986
1358.000000	1.280214
1356.000000	1.280420
1354.000000	1.280764
1352.000000	1.280782
1350.000000	1.280486
1348.000000	1.280615
1346.000000	1.280980
1344.000000	1.280853
1342.000000	1.280132
1340.000000	1.279732
1338.000000	1.279996
1336.000000	1.280400
1334.000000	1.280426
1332.000000	1.280086
1330.000000	1.279878
1328.000000	1.279694
1326.000000	1.279549
1324.000000	1.279372
1322.000000	1.279076
1320.000000	1.279270
1318.000000	1.279451
1316.000000	1.279345
1314.000000	1.279150
1312.000000	1.279126
1310.000000	1.279414
1308.000000	1.279657
1306.000000	1.279298
1304.000000	1.279170
1302.000000	1.279534
1300.000000	1.279725
1298.000000	1.279379
1296.000000	1.279154
1294.000000	1.279178
1292.000000	1.279155
1290.000000	1.279341
1288.000000	1.279377
1286.000000	1.279105
1284.000000	1.279206
1282.000000	1.278985
1280.000000	1.278632
1278.000000	1.278511
1276.000000	1.278211
1274.000000	1.277879
1272.000000	1.277844
1270.000000	1.277995
1268.000000	1.278556
1266.000000	1.279830
1264.000000	1.282197
1262.000000	1.285259
1260.000000	1.287653
1258.000000	1.288594
1256.000000	1.288182
1254.000000	1.286002
1252.000000	1.283933
1250.000000	1.283081
1248.000000	1.282715
1246.000000	1.282425
1244.000000	1.282112
1242.000000	1.281464
1240.000000	1.281640
1238.000000	1.282439
1236.000000	1.282620
1234.000000	1.282538
1232.000000	1.282877
1230.000000	1.283349
1228.000000	1.284059
1226.000000	1.284297
1224.000000	1.284711
1222.000000	1.285495
1220.000000	1.285902
1218.000000	1.286101
1216.000000	1.286502
1214.000000	1.286504
1212.000000	1.286948
1210.000000	1.287390
1208.000000	1.287601
1206.000000	1.287866
1204.000000	1.287996
1202.000000	1.287534
1200.000000	1.287617
1198.000000	1.287929
1196.000000	1.288783
1194.000000	1.289553
1192.000000	1.289537
1190.000000	1.289627
1188.000000	1.290315
1186.000000	1.290344
1184.000000	1.289705
1182.000000	1.289351
1180.000000	1.290040
1178.000000	1.291068
1176.000000	1.291705
1174.000000	1.290862
1172.000000	1.291457
1170.000000	1.292443
1168.000000	1.293079
1166.000000	1.293240
1164.000000	1.292744
1162.000000	1.293617
1160.000000	1.295115
1158.000000	1.295132
1156.000000	1.294932
1154.000000	1.295189
1152.000000	1.295973
1150.000000	1.296899
1148.000000	1.297117
1146.000000	1.295167
1144.000000	1.294503
1142.000000	1.295081
1140.000000	1.295442
1138.000000	1.295683
1136.000000	1.295669
1134.000000	1.295785
1132.000000	1.297240
1130.000000	1.298242
1128.000000	1.298914
1126.000000	1.298974
1124.000000	1.300033
1122.000000	1.301025
1120.000000	1.301675
1118.000000	1.300955
1116.000000	1.301127
1114.000000	1.301790
1112.000000	1.301690
1110.000000	1.300604
1108.000000	1.299290
1106.000000	1.298756
1104.000000	1.300919
1102.000000	1.302333
1100.000000	1.302719
1098.000000	1.302958
1096.000000	1.303337
1094.000000	1.304351
1092.000000	1.306469
1090.000000	1.306140
1088.000000	1.304295
1086.000000	1.303560
1084.000000	1.304749
1082.000000	1.306032
1080.000000	1.307890
1078.000000	1.307654
1076.000000	1.306271
1074.000000	1.304703
1072.000000	1.305021
1070.000000	1.304569
1068.000000	1.303134
1066.000000	1.302179
1064.000000	1.302643
1062.000000	1.302150
1060.000000	1.301837
1058.000000	1.301039
1056.000000	1.301352
1054.000000	1.300163
1052.000000	1.298599
1050.000000	1.296585
1048.000000	1.298392
1046.000000	1.301078
1044.000000	1.301119
1042.000000	1.296850
1040.000000	1.293192
1038.000000	1.292715
1036.000000	1.294987
1034.000000	1.296571
1032.000000	1.296860
1030.000000	1.294569
1028.000000	1.296042
1026.000000	1.297794
1024.000000	1.299342
1022.000000	1.298301
1020.000000	1.295093
1018.000000	1.291025
1016.000000	1.290168
1014.000000	1.290546
1012.000000	1.289974
1010.000000	1.288261
1008.000000	1.286829
1006.000000	1.284661
1004.000000	1.286993
1002.000000	1.287489
1000.000000	1.286527
