PE IR       SUBTECH     SPECTRUM    ASCII       PEDS        4.00        
   -1
TE108A1_041.ASC
20/01/22
15:43:06.00
20/01/22
15:43:06.00
Administrator
Sample 041 By Administrator Date Wednesday, January 22 2020
1000.000000
#HDR
-1
-1
#GR
cm-1
A
1.0
0.0
6000.000000
-1.000000
5001
8
0.985432
0.958781
#DATA
6000.000000	0.964727
5999.000000	0.964763
5998.000000	0.964797
5997.000000	0.964839
5996.000000	0.964874
5995.000000	0.964871
5994.000000	0.964848
5993.000000	0.964849
5992.000000	0.964891
5991.000000	0.964940
5990.000000	0.964957
5989.000000	0.964948
5988.000000	0.964947
5987.000000	0.964966
5986.000000	0.964977
5985.000000	0.964957
5984.000000	0.964920
5983.000000	0.964894
5982.000000	0.964892
5981.000000	0.964899
5980.000000	0.964909
5979.000000	0.964940
5978.000000	0.965003
5977.000000	0.965071
5976.000000	0.965078
5975.000000	0.964995
5974.000000	0.964866
5973.000000	0.964774
5972.000000	0.964751
5971.000000	0.964770
5970.000000	0.964802
5969.000000	0.964851
5968.000000	0.964928
5967.000000	0.965016
5966.000000	0.965087
5965.000000	0.965134
5964.000000	0.965176
5963.000000	0.965232
5962.000000	0.965306
5961.000000	0.965379
5960.000000	0.965413
5959.000000	0.965390
5958.000000	0.965337
5957.000000	0.965301
5956.000000	0.965292
5955.000000	0.965281
5954.000000	0.965259
5953.000000	0.965250
5952.000000	0.965261
5951.000000	0.965257
5950.000000	0.965215
5949.000000	0.965158
5948.000000	0.965122
5947.000000	0.965096
5946.000000	0.965051
5945.000000	0.964999
5944.000000	0.964975
5943.000000	0.964993
5942.000000	0.965034
5941.000000	0.965079
5940.000000	0.965122
5939.000000	0.965153
5938.000000	0.965158
5937.000000	0.965134
5936.000000	0.965093
5935.000000	0.965048
5934.000000	0.965016
5933.000000	0.965018
5932.000000	0.965060
5931.000000	0.965111
5930.000000	0.965122
5929.000000	0.965081
5928.000000	0.965016
5927.000000	0.964959
5926.000000	0.964920
5925.000000	0.964904
5924.000000	0.964916
5923.000000	0.964955
5922.000000	0.964993
5921.000000	0.964998
5920.000000	0.964953
5919.000000	0.964868
5918.000000	0.964774
5917.000000	0.964707
5916.000000	0.964680
5915.000000	0.964681
5914.000000	0.964696
5913.000000	0.964721
5912.000000	0.964752
5911.000000	0.964779
5910.000000	0.964795
5909.000000	0.964808
5908.000000	0.964836
5907.000000	0.964876
5906.000000	0.964906
5905.000000	0.964912
5904.000000	0.964899
5903.000000	0.964890
5902.000000	0.964895
5901.000000	0.964913
5900.000000	0.964933
5899.000000	0.964954
5898.000000	0.964980
5897.000000	0.965006
5896.000000	0.965011
5895.000000	0.964979
5894.000000	0.964934
5893.000000	0.964919
5892.000000	0.964944
5891.000000	0.964972
5890.000000	0.964972
5889.000000	0.964957
5888.000000	0.964953
5887.000000	0.964958
5886.000000	0.964940
5885.000000	0.964890
5884.000000	0.964834
5883.000000	0.964804
5882.000000	0.964809
5881.000000	0.964836
5880.000000	0.964881
5879.000000	0.964947
5878.000000	0.965035
5877.000000	0.965124
5876.000000	0.965185
5875.000000	0.965205
5874.000000	0.965197
5873.000000	0.965186
5872.000000	0.965175
5871.000000	0.965150
5870.000000	0.965102
5869.000000	0.965044
5868.000000	0.964991
5867.000000	0.964954
5866.000000	0.964946
5865.000000	0.964976
5864.000000	0.965046
5863.000000	0.965140
5862.000000	0.965233
5861.000000	0.965301
5860.000000	0.965324
5859.000000	0.965300
5858.000000	0.965253
5857.000000	0.965225
5856.000000	0.965239
5855.000000	0.965288
5854.000000	0.965353
5853.000000	0.965426
5852.000000	0.965492
5851.000000	0.965527
5850.000000	0.965512
5849.000000	0.965453
5848.000000	0.965373
5847.000000	0.965289
5846.000000	0.965216
5845.000000	0.965169
5844.000000	0.965154
5843.000000	0.965171
5842.000000	0.965214
5841.000000	0.965270
5840.000000	0.965318
5839.000000	0.965342
5838.000000	0.965343
5837.000000	0.965336
5836.000000	0.965323
5835.000000	0.965304
5834.000000	0.965284
5833.000000	0.965274
5832.000000	0.965263
5831.000000	0.965233
5830.000000	0.965184
5829.000000	0.965149
5828.000000	0.965147
5827.000000	0.965164
5826.000000	0.965175
5825.000000	0.965176
5824.000000	0.965179
5823.000000	0.965188
5822.000000	0.965201
5821.000000	0.965224
5820.000000	0.965263
5819.000000	0.965308
5818.000000	0.965341
5817.000000	0.965346
5816.000000	0.965322
5815.000000	0.965281
5814.000000	0.965242
5813.000000	0.965217
5812.000000	0.965201
5811.000000	0.965189
5810.000000	0.965184
5809.000000	0.965193
5808.000000	0.965218
5807.000000	0.965248
5806.000000	0.965278
5805.000000	0.965302
5804.000000	0.965305
5803.000000	0.965278
5802.000000	0.965241
5801.000000	0.965223
5800.000000	0.965237
5799.000000	0.965271
5798.000000	0.965321
5797.000000	0.965392
5796.000000	0.965472
5795.000000	0.965525
5794.000000	0.965533
5793.000000	0.965504
5792.000000	0.965459
5791.000000	0.965416
5790.000000	0.965399
5789.000000	0.965434
5788.000000	0.965523
5787.000000	0.965631
5786.000000	0.965722
5785.000000	0.965777
5784.000000	0.965785
5783.000000	0.965733
5782.000000	0.965638
5781.000000	0.965546
5780.000000	0.965503
5779.000000	0.965515
5778.000000	0.965556
5777.000000	0.965598
5776.000000	0.965627
5775.000000	0.965647
5774.000000	0.965666
5773.000000	0.965682
5772.000000	0.965673
5771.000000	0.965633
5770.000000	0.965586
5769.000000	0.965564
5768.000000	0.965561
5767.000000	0.965553
5766.000000	0.965543
5765.000000	0.965562
5764.000000	0.965608
5763.000000	0.965641
5762.000000	0.965637
5761.000000	0.965613
5760.000000	0.965597
5759.000000	0.965594
5758.000000	0.965607
5757.000000	0.965654
5756.000000	0.965728
5755.000000	0.965790
5754.000000	0.965814
5753.000000	0.965802
5752.000000	0.965759
5751.000000	0.965672
5750.000000	0.965561
5749.000000	0.965491
5748.000000	0.965504
5747.000000	0.965572
5746.000000	0.965639
5745.000000	0.965691
5744.000000	0.965737
5743.000000	0.965759
5742.000000	0.965733
5741.000000	0.965672
5740.000000	0.965615
5739.000000	0.965574
5738.000000	0.965537
5737.000000	0.965514
5736.000000	0.965528
5735.000000	0.965568
5734.000000	0.965599
5733.000000	0.965606
5732.000000	0.965601
5731.000000	0.965581
5730.000000	0.965526
5729.000000	0.965444
5728.000000	0.965371
5727.000000	0.965332
5726.000000	0.965310
5725.000000	0.965282
5724.000000	0.965249
5723.000000	0.965220
5722.000000	0.965192
5721.000000	0.965160
5720.000000	0.965132
5719.000000	0.965121
5718.000000	0.965126
5717.000000	0.965144
5716.000000	0.965176
5715.000000	0.965220
5714.000000	0.965260
5713.000000	0.965280
5712.000000	0.965272
5711.000000	0.965242
5710.000000	0.965193
5709.000000	0.965134
5708.000000	0.965092
5707.000000	0.965090
5706.000000	0.965129
5705.000000	0.965184
5704.000000	0.965235
5703.000000	0.965280
5702.000000	0.965325
5701.000000	0.965373
5700.000000	0.965426
5699.000000	0.965493
5698.000000	0.965568
5697.000000	0.965628
5696.000000	0.965638
5695.000000	0.965594
5694.000000	0.965526
5693.000000	0.965468
5692.000000	0.965434
5691.000000	0.965428
5690.000000	0.965461
5689.000000	0.965528
5688.000000	0.965599
5687.000000	0.965637
5686.000000	0.965634
5685.000000	0.965616
5684.000000	0.965606
5683.000000	0.965612
5682.000000	0.965631
5681.000000	0.965653
5680.000000	0.965657
5679.000000	0.965634
5678.000000	0.965594
5677.000000	0.965558
5676.000000	0.965536
5675.000000	0.965532
5674.000000	0.965563
5673.000000	0.965643
5672.000000	0.965748
5671.000000	0.965826
5670.000000	0.965853
5669.000000	0.965852
5668.000000	0.965851
5667.000000	0.965846
5666.000000	0.965828
5665.000000	0.965807
5664.000000	0.965801
5663.000000	0.965807
5662.000000	0.965807
5661.000000	0.965797
5660.000000	0.965789
5659.000000	0.965799
5658.000000	0.965829
5657.000000	0.965869
5656.000000	0.965902
5655.000000	0.965918
5654.000000	0.965917
5653.000000	0.965903
5652.000000	0.965872
5651.000000	0.965825
5650.000000	0.965780
5649.000000	0.965757
5648.000000	0.965750
5647.000000	0.965735
5646.000000	0.965708
5645.000000	0.965689
5644.000000	0.965692
5643.000000	0.965705
5642.000000	0.965715
5641.000000	0.965721
5640.000000	0.965720
5639.000000	0.965705
5638.000000	0.965676
5637.000000	0.965646
5636.000000	0.965624
5635.000000	0.965616
5634.000000	0.965624
5633.000000	0.965641
5632.000000	0.965642
5631.000000	0.965610
5630.000000	0.965564
5629.000000	0.965540
5628.000000	0.965537
5627.000000	0.965530
5626.000000	0.965520
5625.000000	0.965540
5624.000000	0.965594
5623.000000	0.965636
5622.000000	0.965641
5621.000000	0.965642
5620.000000	0.965681
5619.000000	0.965738
5618.000000	0.965766
5617.000000	0.965755
5616.000000	0.965732
5615.000000	0.965714
5614.000000	0.965697
5613.000000	0.965678
5612.000000	0.965664
5611.000000	0.965656
5610.000000	0.965646
5609.000000	0.965633
5608.000000	0.965615
5607.000000	0.965590
5606.000000	0.965570
5605.000000	0.965584
5604.000000	0.965645
5603.000000	0.965721
5602.000000	0.965762
5601.000000	0.965747
5600.000000	0.965692
5599.000000	0.965616
5598.000000	0.965543
5597.000000	0.965510
5596.000000	0.965544
5595.000000	0.965635
5594.000000	0.965731
5593.000000	0.965791
5592.000000	0.965809
5591.000000	0.965802
5590.000000	0.965783
5589.000000	0.965765
5588.000000	0.965756
5587.000000	0.965760
5586.000000	0.965773
5585.000000	0.965778
5584.000000	0.965765
5583.000000	0.965732
5582.000000	0.965699
5581.000000	0.965695
5580.000000	0.965732
5579.000000	0.965794
5578.000000	0.965849
5577.000000	0.965876
5576.000000	0.965880
5575.000000	0.965874
5574.000000	0.965871
5573.000000	0.965874
5572.000000	0.965883
5571.000000	0.965906
5570.000000	0.965949
5569.000000	0.965994
5568.000000	0.966005
5567.000000	0.965967
5566.000000	0.965913
5565.000000	0.965883
5564.000000	0.965881
5563.000000	0.965881
5562.000000	0.965872
5561.000000	0.965866
5560.000000	0.965869
5559.000000	0.965871
5558.000000	0.965869
5557.000000	0.965874
5556.000000	0.965871
5555.000000	0.965829
5554.000000	0.965735
5553.000000	0.965620
5552.000000	0.965519
5551.000000	0.965444
5550.000000	0.965407
5549.000000	0.965429
5548.000000	0.965508
5547.000000	0.965604
5546.000000	0.965673
5545.000000	0.965706
5544.000000	0.965713
5543.000000	0.965693
5542.000000	0.965648
5541.000000	0.965601
5540.000000	0.965577
5539.000000	0.965573
5538.000000	0.965564
5537.000000	0.965544
5536.000000	0.965535
5535.000000	0.965554
5534.000000	0.965586
5533.000000	0.965613
5532.000000	0.965630
5531.000000	0.965649
5530.000000	0.965676
5529.000000	0.965698
5528.000000	0.965694
5527.000000	0.965664
5526.000000	0.965637
5525.000000	0.965637
5524.000000	0.965652
5523.000000	0.965654
5522.000000	0.965647
5521.000000	0.965659
5520.000000	0.965691
5519.000000	0.965702
5518.000000	0.965663
5517.000000	0.965597
5516.000000	0.965539
5515.000000	0.965492
5514.000000	0.965437
5513.000000	0.965380
5512.000000	0.965346
5511.000000	0.965343
5510.000000	0.965350
5509.000000	0.965348
5508.000000	0.965341
5507.000000	0.965344
5506.000000	0.965364
5505.000000	0.965386
5504.000000	0.965394
5503.000000	0.965396
5502.000000	0.965423
5501.000000	0.965485
5500.000000	0.965536
5499.000000	0.965527
5498.000000	0.965484
5497.000000	0.965484
5496.000000	0.965541
5495.000000	0.965562
5494.000000	0.965464
5493.000000	0.965300
5492.000000	0.965202
5491.000000	0.965222
5490.000000	0.965293
5489.000000	0.965345
5488.000000	0.965401
5487.000000	0.965518
5486.000000	0.965690
5485.000000	0.965840
5484.000000	0.965910
5483.000000	0.965885
5482.000000	0.965773
5481.000000	0.965605
5480.000000	0.965445
5479.000000	0.965364
5478.000000	0.965363
5477.000000	0.965359
5476.000000	0.965292
5475.000000	0.965216
5474.000000	0.965240
5473.000000	0.965382
5472.000000	0.965542
5471.000000	0.965626
5470.000000	0.965648
5469.000000	0.965667
5468.000000	0.965691
5467.000000	0.965675
5466.000000	0.965602
5465.000000	0.965515
5464.000000	0.965460
5463.000000	0.965435
5462.000000	0.965408
5461.000000	0.965378
5460.000000	0.965382
5459.000000	0.965441
5458.000000	0.965533
5457.000000	0.965614
5456.000000	0.965654
5455.000000	0.965667
5454.000000	0.965676
5453.000000	0.965661
5452.000000	0.965557
5451.000000	0.965335
5450.000000	0.965084
5449.000000	0.964939
5448.000000	0.964918
5447.000000	0.964904
5446.000000	0.964820
5445.000000	0.964754
5444.000000	0.964828
5443.000000	0.964992
5442.000000	0.965073
5441.000000	0.965003
5440.000000	0.964910
5439.000000	0.964939
5438.000000	0.965075
5437.000000	0.965165
5436.000000	0.965093
5435.000000	0.964911
5434.000000	0.964794
5433.000000	0.964854
5432.000000	0.965012
5431.000000	0.965073
5430.000000	0.964953
5429.000000	0.964788
5428.000000	0.964779
5427.000000	0.964964
5426.000000	0.965193
5425.000000	0.965322
5424.000000	0.965359
5423.000000	0.965411
5422.000000	0.965522
5421.000000	0.965606
5420.000000	0.965555
5419.000000	0.965378
5418.000000	0.965200
5417.000000	0.965101
5416.000000	0.965011
5415.000000	0.964837
5414.000000	0.964630
5413.000000	0.964546
5412.000000	0.964628
5411.000000	0.964747
5410.000000	0.964799
5409.000000	0.964841
5408.000000	0.964975
5407.000000	0.965180
5406.000000	0.965349
5405.000000	0.965441
5404.000000	0.965492
5403.000000	0.965544
5402.000000	0.965596
5401.000000	0.965622
5400.000000	0.965594
5399.000000	0.965505
5398.000000	0.965396
5397.000000	0.965340
5396.000000	0.965345
5395.000000	0.965337
5394.000000	0.965275
5393.000000	0.965213
5392.000000	0.965214
5391.000000	0.965251
5390.000000	0.965268
5389.000000	0.965273
5388.000000	0.965296
5387.000000	0.965316
5386.000000	0.965310
5385.000000	0.965313
5384.000000	0.965357
5383.000000	0.965388
5382.000000	0.965346
5381.000000	0.965278
5380.000000	0.965281
5379.000000	0.965344
5378.000000	0.965366
5377.000000	0.965325
5376.000000	0.965320
5375.000000	0.965420
5374.000000	0.965575
5373.000000	0.965703
5372.000000	0.965792
5371.000000	0.965867
5370.000000	0.965924
5369.000000	0.965944
5368.000000	0.965941
5367.000000	0.965938
5366.000000	0.965938
5365.000000	0.965927
5364.000000	0.965912
5363.000000	0.965909
5362.000000	0.965923
5361.000000	0.965925
5360.000000	0.965871
5359.000000	0.965745
5358.000000	0.965594
5357.000000	0.965495
5356.000000	0.965451
5355.000000	0.965373
5354.000000	0.965224
5353.000000	0.965107
5352.000000	0.965118
5351.000000	0.965171
5350.000000	0.965101
5349.000000	0.964915
5348.000000	0.964801
5347.000000	0.964854
5346.000000	0.964913
5345.000000	0.964790
5344.000000	0.964545
5343.000000	0.964411
5342.000000	0.964478
5341.000000	0.964605
5340.000000	0.964631
5339.000000	0.964571
5338.000000	0.964568
5337.000000	0.964710
5336.000000	0.964935
5335.000000	0.965100
5334.000000	0.965118
5333.000000	0.965037
5332.000000	0.964991
5331.000000	0.965073
5330.000000	0.965236
5329.000000	0.965339
5328.000000	0.965310
5327.000000	0.965232
5326.000000	0.965232
5325.000000	0.965326
5324.000000	0.965412
5323.000000	0.965417
5322.000000	0.965389
5321.000000	0.965420
5320.000000	0.965524
5319.000000	0.965641
5318.000000	0.965712
5317.000000	0.965743
5316.000000	0.965772
5315.000000	0.965810
5314.000000	0.965826
5313.000000	0.965796
5312.000000	0.965747
5311.000000	0.965725
5310.000000	0.965736
5309.000000	0.965739
5308.000000	0.965711
5307.000000	0.965685
5306.000000	0.965707
5305.000000	0.965766
5304.000000	0.965807
5303.000000	0.965810
5302.000000	0.965816
5301.000000	0.965863
5300.000000	0.965933
5299.000000	0.965990
5298.000000	0.966025
5297.000000	0.966040
5296.000000	0.966017
5295.000000	0.965954
5294.000000	0.965893
5293.000000	0.965877
5292.000000	0.965866
5291.000000	0.965788
5290.000000	0.965667
5289.000000	0.965619
5288.000000	0.965694
5287.000000	0.965801
5286.000000	0.965834
5285.000000	0.965824
5284.000000	0.965874
5283.000000	0.966000
5282.000000	0.966106
5281.000000	0.966131
5280.000000	0.966115
5279.000000	0.966126
5278.000000	0.966167
5277.000000	0.966203
5276.000000	0.966215
5275.000000	0.966207
5274.000000	0.966191
5273.000000	0.966180
5272.000000	0.966178
5271.000000	0.966141
5270.000000	0.966013
5269.000000	0.965820
5268.000000	0.965661
5267.000000	0.965600
5266.000000	0.965584
5265.000000	0.965529
5264.000000	0.965450
5263.000000	0.965424
5262.000000	0.965467
5261.000000	0.965501
5260.000000	0.965487
5259.000000	0.965484
5258.000000	0.965558
5257.000000	0.965673
5256.000000	0.965722
5255.000000	0.965653
5254.000000	0.965527
5253.000000	0.965439
5252.000000	0.965417
5251.000000	0.965396
5250.000000	0.965303
5249.000000	0.965155
5248.000000	0.965054
5247.000000	0.965082
5246.000000	0.965192
5245.000000	0.965272
5244.000000	0.965299
5243.000000	0.965365
5242.000000	0.965535
5241.000000	0.965740
5240.000000	0.965861
5239.000000	0.965877
5238.000000	0.965868
5237.000000	0.965889
5236.000000	0.965912
5235.000000	0.965898
5234.000000	0.965859
5233.000000	0.965811
5232.000000	0.965730
5231.000000	0.965602
5230.000000	0.965482
5229.000000	0.965443
5228.000000	0.965474
5227.000000	0.965493
5226.000000	0.965471
5225.000000	0.965477
5224.000000	0.965570
5223.000000	0.965709
5222.000000	0.965806
5221.000000	0.965838
5220.000000	0.965851
5219.000000	0.965878
5218.000000	0.965914
5217.000000	0.965938
5216.000000	0.965938
5215.000000	0.965902
5214.000000	0.965830
5213.000000	0.965738
5212.000000	0.965648
5211.000000	0.965570
5210.000000	0.965509
5209.000000	0.965470
5208.000000	0.965441
5207.000000	0.965409
5206.000000	0.965406
5205.000000	0.965491
5204.000000	0.965665
5203.000000	0.965848
5202.000000	0.965974
5201.000000	0.966057
5200.000000	0.966138
5199.000000	0.966193
5198.000000	0.966173
5197.000000	0.966093
5196.000000	0.966032
5195.000000	0.966036
5194.000000	0.966082
5193.000000	0.966128
5192.000000	0.966164
5191.000000	0.966185
5190.000000	0.966187
5189.000000	0.966185
5188.000000	0.966204
5187.000000	0.966235
5186.000000	0.966246
5185.000000	0.966232
5184.000000	0.966238
5183.000000	0.966289
5182.000000	0.966351
5181.000000	0.966376
5180.000000	0.966363
5179.000000	0.966353
5178.000000	0.966367
5177.000000	0.966384
5176.000000	0.966384
5175.000000	0.966376
5174.000000	0.966378
5173.000000	0.966389
5172.000000	0.966391
5171.000000	0.966368
5170.000000	0.966332
5169.000000	0.966313
5168.000000	0.966328
5167.000000	0.966367
5166.000000	0.966402
5165.000000	0.966417
5164.000000	0.966413
5163.000000	0.966403
5162.000000	0.966390
5161.000000	0.966368
5160.000000	0.966327
5159.000000	0.966273
5158.000000	0.966224
5157.000000	0.966200
5156.000000	0.966202
5155.000000	0.966218
5154.000000	0.966242
5153.000000	0.966266
5152.000000	0.966280
5151.000000	0.966273
5150.000000	0.966259
5149.000000	0.966265
5148.000000	0.966301
5147.000000	0.966345
5146.000000	0.966370
5145.000000	0.966371
5144.000000	0.966351
5143.000000	0.966306
5142.000000	0.966244
5141.000000	0.966197
5140.000000	0.966193
5139.000000	0.966227
5138.000000	0.966271
5137.000000	0.966311
5136.000000	0.966352
5135.000000	0.966399
5134.000000	0.966442
5133.000000	0.966472
5132.000000	0.966483
5131.000000	0.966471
5130.000000	0.966437
5129.000000	0.966396
5128.000000	0.966372
5127.000000	0.966378
5126.000000	0.966408
5125.000000	0.966445
5124.000000	0.966476
5123.000000	0.966489
5122.000000	0.966484
5121.000000	0.966469
5120.000000	0.966450
5119.000000	0.966428
5118.000000	0.966405
5117.000000	0.966394
5116.000000	0.966399
5115.000000	0.966421
5114.000000	0.966456
5113.000000	0.966506
5112.000000	0.966561
5111.000000	0.966600
5110.000000	0.966614
5109.000000	0.966617
5108.000000	0.966629
5107.000000	0.966646
5106.000000	0.966653
5105.000000	0.966647
5104.000000	0.966638
5103.000000	0.966635
5102.000000	0.966635
5101.000000	0.966643
5100.000000	0.966665
5099.000000	0.966696
5098.000000	0.966718
5097.000000	0.966722
5096.000000	0.966713
5095.000000	0.966702
5094.000000	0.966699
5093.000000	0.966707
5092.000000	0.966723
5091.000000	0.966738
5090.000000	0.966742
5089.000000	0.966734
5088.000000	0.966717
5087.000000	0.966696
5086.000000	0.966679
5085.000000	0.966679
5084.000000	0.966704
5083.000000	0.966743
5082.000000	0.966783
5081.000000	0.966819
5080.000000	0.966848
5079.000000	0.966861
5078.000000	0.966852
5077.000000	0.966831
5076.000000	0.966817
5075.000000	0.966813
5074.000000	0.966815
5073.000000	0.966823
5072.000000	0.966839
5071.000000	0.966854
5070.000000	0.966854
5069.000000	0.966834
5068.000000	0.966799
5067.000000	0.966758
5066.000000	0.966723
5065.000000	0.966710
5064.000000	0.966722
5063.000000	0.966746
5062.000000	0.966764
5061.000000	0.966769
5060.000000	0.966764
5059.000000	0.966748
5058.000000	0.966729
5057.000000	0.966721
5056.000000	0.966736
5055.000000	0.966762
5054.000000	0.966779
5053.000000	0.966776
5052.000000	0.966754
5051.000000	0.966712
5050.000000	0.966658
5049.000000	0.966610
5048.000000	0.966592
5047.000000	0.966601
5046.000000	0.966619
5045.000000	0.966634
5044.000000	0.966653
5043.000000	0.966679
5042.000000	0.966701
5041.000000	0.966708
5040.000000	0.966696
5039.000000	0.966667
5038.000000	0.966627
5037.000000	0.966589
5036.000000	0.966571
5035.000000	0.966584
5034.000000	0.966619
5033.000000	0.966656
5032.000000	0.966684
5031.000000	0.966701
5030.000000	0.966718
5029.000000	0.966741
5028.000000	0.966765
5027.000000	0.966780
5026.000000	0.966779
5025.000000	0.966767
5024.000000	0.966754
5023.000000	0.966747
5022.000000	0.966753
5021.000000	0.966781
5020.000000	0.966824
5019.000000	0.966863
5018.000000	0.966888
5017.000000	0.966903
5016.000000	0.966909
5015.000000	0.966899
5014.000000	0.966872
5013.000000	0.966840
5012.000000	0.966819
5011.000000	0.966805
5010.000000	0.966795
5009.000000	0.966793
5008.000000	0.966799
5007.000000	0.966799
5006.000000	0.966779
5005.000000	0.966750
5004.000000	0.966744
5003.000000	0.966775
5002.000000	0.966834
5001.000000	0.966897
5000.000000	0.966947
4999.000000	0.966967
4998.000000	0.966951
4997.000000	0.966913
4996.000000	0.966882
4995.000000	0.966876
4994.000000	0.966900
4993.000000	0.966943
4992.000000	0.966988
4991.000000	0.967019
4990.000000	0.967029
4989.000000	0.967025
4988.000000	0.967015
4987.000000	0.967005
4986.000000	0.966997
4985.000000	0.966999
4984.000000	0.967012
4983.000000	0.967028
4982.000000	0.967035
4981.000000	0.967031
4980.000000	0.967021
4979.000000	0.967012
4978.000000	0.967005
4977.000000	0.967003
4976.000000	0.967007
4975.000000	0.967012
4974.000000	0.967008
4973.000000	0.966995
4972.000000	0.966976
4971.000000	0.966958
4970.000000	0.966943
4969.000000	0.966935
4968.000000	0.966932
4967.000000	0.966926
4966.000000	0.966917
4965.000000	0.966910
4964.000000	0.966903
4963.000000	0.966889
4962.000000	0.966868
4961.000000	0.966849
4960.000000	0.966838
4959.000000	0.966829
4958.000000	0.966817
4957.000000	0.966815
4956.000000	0.966832
4955.000000	0.966863
4954.000000	0.966892
4953.000000	0.966910
4952.000000	0.966916
4951.000000	0.966908
4950.000000	0.966886
4949.000000	0.966862
4948.000000	0.966845
4947.000000	0.966835
4946.000000	0.966822
4945.000000	0.966796
4944.000000	0.966759
4943.000000	0.966718
4942.000000	0.966685
4941.000000	0.966671
4940.000000	0.966674
4939.000000	0.966684
4938.000000	0.966696
4937.000000	0.966718
4936.000000	0.966755
4935.000000	0.966802
4934.000000	0.966843
4933.000000	0.966867
4932.000000	0.966865
4931.000000	0.966835
4930.000000	0.966790
4929.000000	0.966753
4928.000000	0.966740
4927.000000	0.966746
4926.000000	0.966762
4925.000000	0.966784
4924.000000	0.966813
4923.000000	0.966844
4922.000000	0.966868
4921.000000	0.966880
4920.000000	0.966873
4919.000000	0.966843
4918.000000	0.966803
4917.000000	0.966780
4916.000000	0.966790
4915.000000	0.966824
4914.000000	0.966859
4913.000000	0.966885
4912.000000	0.966900
4911.000000	0.966904
4910.000000	0.966905
4909.000000	0.966918
4908.000000	0.966942
4907.000000	0.966962
4906.000000	0.966959
4905.000000	0.966938
4904.000000	0.966916
4903.000000	0.966904
4902.000000	0.966910
4901.000000	0.966940
4900.000000	0.966984
4899.000000	0.967019
4898.000000	0.967026
4897.000000	0.967012
4896.000000	0.966994
4895.000000	0.966983
4894.000000	0.966985
4893.000000	0.967007
4892.000000	0.967041
4891.000000	0.967063
4890.000000	0.967059
4889.000000	0.967043
4888.000000	0.967036
4887.000000	0.967043
4886.000000	0.967060
4885.000000	0.967079
4884.000000	0.967098
4883.000000	0.967104
4882.000000	0.967092
4881.000000	0.967070
4880.000000	0.967049
4879.000000	0.967024
4878.000000	0.966991
4877.000000	0.966961
4876.000000	0.966945
4875.000000	0.966942
4874.000000	0.966938
4873.000000	0.966928
4872.000000	0.966908
4871.000000	0.966871
4870.000000	0.966819
4869.000000	0.966778
4868.000000	0.966774
4867.000000	0.966803
4866.000000	0.966840
4865.000000	0.966870
4864.000000	0.966892
4863.000000	0.966900
4862.000000	0.966891
4861.000000	0.966869
4860.000000	0.966851
4859.000000	0.966839
4858.000000	0.966825
4857.000000	0.966807
4856.000000	0.966788
4855.000000	0.966762
4854.000000	0.966724
4853.000000	0.966678
4852.000000	0.966644
4851.000000	0.966634
4850.000000	0.966646
4849.000000	0.966675
4848.000000	0.966711
4847.000000	0.966735
4846.000000	0.966739
4845.000000	0.966731
4844.000000	0.966730
4843.000000	0.966740
4842.000000	0.966753
4841.000000	0.966758
4840.000000	0.966755
4839.000000	0.966747
4838.000000	0.966740
4837.000000	0.966743
4836.000000	0.966757
4835.000000	0.966770
4834.000000	0.966772
4833.000000	0.966760
4832.000000	0.966741
4831.000000	0.966721
4830.000000	0.966703
4829.000000	0.966694
4828.000000	0.966694
4827.000000	0.966698
4826.000000	0.966703
4825.000000	0.966713
4824.000000	0.966736
4823.000000	0.966763
4822.000000	0.966783
4821.000000	0.966793
4820.000000	0.966801
4819.000000	0.966805
4818.000000	0.966804
4817.000000	0.966802
4816.000000	0.966802
4815.000000	0.966802
4814.000000	0.966800
4813.000000	0.966811
4812.000000	0.966840
4811.000000	0.966876
4810.000000	0.966892
4809.000000	0.966881
4808.000000	0.966851
4807.000000	0.966816
4806.000000	0.966790
4805.000000	0.966787
4804.000000	0.966812
4803.000000	0.966843
4802.000000	0.966856
4801.000000	0.966846
4800.000000	0.966832
4799.000000	0.966832
4798.000000	0.966848
4797.000000	0.966877
4796.000000	0.966917
4795.000000	0.966955
4794.000000	0.966970
4793.000000	0.966955
4792.000000	0.966923
4791.000000	0.966894
4790.000000	0.966882
4789.000000	0.966893
4788.000000	0.966921
4787.000000	0.966951
4786.000000	0.966962
4785.000000	0.966952
4784.000000	0.966936
4783.000000	0.966925
4782.000000	0.966923
4781.000000	0.966924
4780.000000	0.966915
4779.000000	0.966886
4778.000000	0.966831
4777.000000	0.966767
4776.000000	0.966717
4775.000000	0.966689
4774.000000	0.966672
4773.000000	0.966655
4772.000000	0.966632
4771.000000	0.966600
4770.000000	0.966560
4769.000000	0.966519
4768.000000	0.966487
4767.000000	0.966467
4766.000000	0.966450
4765.000000	0.966424
4764.000000	0.966384
4763.000000	0.966331
4762.000000	0.966280
4761.000000	0.966245
4760.000000	0.966232
4759.000000	0.966233
4758.000000	0.966234
4757.000000	0.966228
4756.000000	0.966210
4755.000000	0.966178
4754.000000	0.966132
4753.000000	0.966082
4752.000000	0.966037
4751.000000	0.965991
4750.000000	0.965942
4749.000000	0.965899
4748.000000	0.965875
4747.000000	0.965870
4746.000000	0.965873
4745.000000	0.965886
4744.000000	0.965914
4743.000000	0.965957
4742.000000	0.965998
4741.000000	0.966030
4740.000000	0.966052
4739.000000	0.966060
4738.000000	0.966045
4737.000000	0.966012
4736.000000	0.965974
4735.000000	0.965946
4734.000000	0.965931
4733.000000	0.965926
4732.000000	0.965928
4731.000000	0.965934
4730.000000	0.965942
4729.000000	0.965955
4728.000000	0.965980
4727.000000	0.966017
4726.000000	0.966051
4725.000000	0.966064
4724.000000	0.966054
4723.000000	0.966031
4722.000000	0.966013
4721.000000	0.966007
4720.000000	0.966010
4719.000000	0.966011
4718.000000	0.966001
4717.000000	0.965983
4716.000000	0.965966
4715.000000	0.965956
4714.000000	0.965957
4713.000000	0.965973
4712.000000	0.965995
4711.000000	0.966010
4710.000000	0.966011
4709.000000	0.966009
4708.000000	0.966011
4707.000000	0.966017
4706.000000	0.966021
4705.000000	0.966025
4704.000000	0.966033
4703.000000	0.966039
4702.000000	0.966036
4701.000000	0.966028
4700.000000	0.966018
4699.000000	0.966003
4698.000000	0.965979
4697.000000	0.965956
4696.000000	0.965955
4695.000000	0.965986
4694.000000	0.966039
4693.000000	0.966091
4692.000000	0.966122
4691.000000	0.966119
4690.000000	0.966086
4689.000000	0.966042
4688.000000	0.966013
4687.000000	0.966007
4686.000000	0.966017
4685.000000	0.966026
4684.000000	0.966022
4683.000000	0.966000
4682.000000	0.965965
4681.000000	0.965929
4680.000000	0.965905
4679.000000	0.965900
4678.000000	0.965910
4677.000000	0.965924
4676.000000	0.965928
4675.000000	0.965914
4674.000000	0.965885
4673.000000	0.965855
4672.000000	0.965829
4671.000000	0.965803
4670.000000	0.965772
4669.000000	0.965742
4668.000000	0.965719
4667.000000	0.965706
4666.000000	0.965709
4665.000000	0.965727
4664.000000	0.965751
4663.000000	0.965757
4662.000000	0.965735
4661.000000	0.965694
4660.000000	0.965656
4659.000000	0.965631
4658.000000	0.965622
4657.000000	0.965632
4656.000000	0.965654
4655.000000	0.965673
4654.000000	0.965676
4653.000000	0.965668
4652.000000	0.965658
4651.000000	0.965650
4650.000000	0.965640
4649.000000	0.965634
4648.000000	0.965635
4647.000000	0.965641
4646.000000	0.965649
4645.000000	0.965657
4644.000000	0.965664
4643.000000	0.965665
4642.000000	0.965660
4641.000000	0.965660
4640.000000	0.965674
4639.000000	0.965695
4638.000000	0.965711
4637.000000	0.965725
4636.000000	0.965738
4635.000000	0.965749
4634.000000	0.965750
4633.000000	0.965748
4632.000000	0.965748
4631.000000	0.965743
4630.000000	0.965730
4629.000000	0.965721
4628.000000	0.965735
4627.000000	0.965772
4626.000000	0.965814
4625.000000	0.965849
4624.000000	0.965870
4623.000000	0.965869
4622.000000	0.965839
4621.000000	0.965795
4620.000000	0.965765
4619.000000	0.965762
4618.000000	0.965778
4617.000000	0.965803
4616.000000	0.965834
4615.000000	0.965869
4614.000000	0.965895
4613.000000	0.965909
4612.000000	0.965917
4611.000000	0.965926
4610.000000	0.965933
4609.000000	0.965937
4608.000000	0.965943
4607.000000	0.965957
4606.000000	0.965977
4605.000000	0.965992
4604.000000	0.965994
4603.000000	0.965982
4602.000000	0.965963
4601.000000	0.965949
4600.000000	0.965946
4599.000000	0.965960
4598.000000	0.965989
4597.000000	0.966026
4596.000000	0.966061
4595.000000	0.966088
4594.000000	0.966102
4593.000000	0.966105
4592.000000	0.966098
4591.000000	0.966080
4590.000000	0.966056
4589.000000	0.966037
4588.000000	0.966032
4587.000000	0.966041
4586.000000	0.966055
4585.000000	0.966067
4584.000000	0.966068
4583.000000	0.966054
4582.000000	0.966030
4581.000000	0.966012
4580.000000	0.966009
4579.000000	0.966019
4578.000000	0.966028
4577.000000	0.966024
4576.000000	0.965998
4575.000000	0.965949
4574.000000	0.965890
4573.000000	0.965846
4572.000000	0.965832
4571.000000	0.965845
4570.000000	0.965869
4569.000000	0.965891
4568.000000	0.965902
4567.000000	0.965898
4566.000000	0.965883
4565.000000	0.965871
4564.000000	0.965868
4563.000000	0.965870
4562.000000	0.965871
4561.000000	0.965868
4560.000000	0.965865
4559.000000	0.965856
4558.000000	0.965838
4557.000000	0.965816
4556.000000	0.965798
4555.000000	0.965789
4554.000000	0.965789
4553.000000	0.965797
4552.000000	0.965804
4551.000000	0.965795
4550.000000	0.965767
4549.000000	0.965733
4548.000000	0.965714
4547.000000	0.965721
4546.000000	0.965750
4545.000000	0.965790
4544.000000	0.965823
4543.000000	0.965832
4542.000000	0.965813
4541.000000	0.965782
4540.000000	0.965758
4539.000000	0.965744
4538.000000	0.965736
4537.000000	0.965732
4536.000000	0.965731
4535.000000	0.965730
4534.000000	0.965728
4533.000000	0.965734
4532.000000	0.965760
4531.000000	0.965798
4530.000000	0.965834
4529.000000	0.965857
4528.000000	0.965863
4527.000000	0.965857
4526.000000	0.965845
4525.000000	0.965836
4524.000000	0.965835
4523.000000	0.965835
4522.000000	0.965828
4521.000000	0.965817
4520.000000	0.965814
4519.000000	0.965826
4518.000000	0.965854
4517.000000	0.965890
4516.000000	0.965927
4515.000000	0.965953
4514.000000	0.965961
4513.000000	0.965953
4512.000000	0.965940
4511.000000	0.965927
4510.000000	0.965917
4509.000000	0.965910
4508.000000	0.965907
4507.000000	0.965900
4506.000000	0.965890
4505.000000	0.965881
4504.000000	0.965877
4503.000000	0.965877
4502.000000	0.965882
4501.000000	0.965894
4500.000000	0.965915
4499.000000	0.965937
4498.000000	0.965947
4497.000000	0.965946
4496.000000	0.965940
4495.000000	0.965933
4494.000000	0.965928
4493.000000	0.965930
4492.000000	0.965939
4491.000000	0.965944
4490.000000	0.965937
4489.000000	0.965926
4488.000000	0.965920
4487.000000	0.965917
4486.000000	0.965909
4485.000000	0.965893
4484.000000	0.965872
4483.000000	0.965851
4482.000000	0.965832
4481.000000	0.965818
4480.000000	0.965807
4479.000000	0.965787
4478.000000	0.965751
4477.000000	0.965705
4476.000000	0.965669
4475.000000	0.965660
4474.000000	0.965674
4473.000000	0.965700
4472.000000	0.965726
4471.000000	0.965736
4470.000000	0.965725
4469.000000	0.965702
4468.000000	0.965684
4467.000000	0.965679
4466.000000	0.965685
4465.000000	0.965696
4464.000000	0.965702
4463.000000	0.965696
4462.000000	0.965673
4461.000000	0.965643
4460.000000	0.965621
4459.000000	0.965613
4458.000000	0.965613
4457.000000	0.965618
4456.000000	0.965623
4455.000000	0.965623
4454.000000	0.965618
4453.000000	0.965613
4452.000000	0.965614
4451.000000	0.965620
4450.000000	0.965624
4449.000000	0.965626
4448.000000	0.965625
4447.000000	0.965626
4446.000000	0.965629
4445.000000	0.965633
4444.000000	0.965642
4443.000000	0.965652
4442.000000	0.965660
4441.000000	0.965666
4440.000000	0.965670
4439.000000	0.965665
4438.000000	0.965648
4437.000000	0.965620
4436.000000	0.965591
4435.000000	0.965577
4434.000000	0.965583
4433.000000	0.965605
4432.000000	0.965629
4431.000000	0.965643
4430.000000	0.965642
4429.000000	0.965633
4428.000000	0.965625
4427.000000	0.965627
4426.000000	0.965639
4425.000000	0.965656
4424.000000	0.965672
4423.000000	0.965680
4422.000000	0.965680
4421.000000	0.965677
4420.000000	0.965674
4419.000000	0.965674
4418.000000	0.965677
4417.000000	0.965684
4416.000000	0.965693
4415.000000	0.965701
4414.000000	0.965707
4413.000000	0.965716
4412.000000	0.965726
4411.000000	0.965734
4410.000000	0.965738
4409.000000	0.965743
4408.000000	0.965748
4407.000000	0.965750
4406.000000	0.965747
4405.000000	0.965744
4404.000000	0.965745
4403.000000	0.965749
4402.000000	0.965754
4401.000000	0.965760
4400.000000	0.965765
4399.000000	0.965765
4398.000000	0.965759
4397.000000	0.965753
4396.000000	0.965748
4395.000000	0.965738
4394.000000	0.965723
4393.000000	0.965709
4392.000000	0.965699
4391.000000	0.965687
4390.000000	0.965672
4389.000000	0.965658
4388.000000	0.965654
4387.000000	0.965656
4386.000000	0.965659
4385.000000	0.965660
4384.000000	0.965657
4383.000000	0.965643
4382.000000	0.965622
4381.000000	0.965601
4380.000000	0.965585
4379.000000	0.965572
4378.000000	0.965561
4377.000000	0.965556
4376.000000	0.965557
4375.000000	0.965556
4374.000000	0.965544
4373.000000	0.965525
4372.000000	0.965508
4371.000000	0.965495
4370.000000	0.965490
4369.000000	0.965495
4368.000000	0.965501
4367.000000	0.965496
4366.000000	0.965478
4365.000000	0.965458
4364.000000	0.965448
4363.000000	0.965448
4362.000000	0.965454
4361.000000	0.965468
4360.000000	0.965491
4359.000000	0.965512
4358.000000	0.965523
4357.000000	0.965525
4356.000000	0.965524
4355.000000	0.965521
4354.000000	0.965521
4353.000000	0.965529
4352.000000	0.965544
4351.000000	0.965555
4350.000000	0.965558
4349.000000	0.965562
4348.000000	0.965575
4347.000000	0.965588
4346.000000	0.965585
4345.000000	0.965566
4344.000000	0.965542
4343.000000	0.965521
4342.000000	0.965507
4341.000000	0.965501
4340.000000	0.965502
4339.000000	0.965504
4338.000000	0.965506
4337.000000	0.965520
4336.000000	0.965551
4335.000000	0.965592
4334.000000	0.965624
4333.000000	0.965640
4332.000000	0.965642
4331.000000	0.965633
4330.000000	0.965614
4329.000000	0.965592
4328.000000	0.965575
4327.000000	0.965569
4326.000000	0.965574
4325.000000	0.965589
4324.000000	0.965606
4323.000000	0.965617
4322.000000	0.965616
4321.000000	0.965610
4320.000000	0.965607
4319.000000	0.965611
4318.000000	0.965621
4317.000000	0.965640
4316.000000	0.965667
4315.000000	0.965696
4314.000000	0.965713
4313.000000	0.965714
4312.000000	0.965699
4311.000000	0.965673
4310.000000	0.965646
4309.000000	0.965627
4308.000000	0.965617
4307.000000	0.965611
4306.000000	0.965605
4305.000000	0.965605
4304.000000	0.965618
4303.000000	0.965640
4302.000000	0.965664
4301.000000	0.965688
4300.000000	0.965712
4299.000000	0.965732
4298.000000	0.965746
4297.000000	0.965757
4296.000000	0.965764
4295.000000	0.965763
4294.000000	0.965753
4293.000000	0.965743
4292.000000	0.965738
4291.000000	0.965736
4290.000000	0.965731
4289.000000	0.965721
4288.000000	0.965709
4287.000000	0.965690
4286.000000	0.965660
4285.000000	0.965623
4284.000000	0.965586
4283.000000	0.965557
4282.000000	0.965541
4281.000000	0.965540
4280.000000	0.965548
4279.000000	0.965551
4278.000000	0.965539
4277.000000	0.965514
4276.000000	0.965488
4275.000000	0.965471
4274.000000	0.965465
4273.000000	0.965473
4272.000000	0.965489
4271.000000	0.965504
4270.000000	0.965511
4269.000000	0.965506
4268.000000	0.965491
4267.000000	0.965472
4266.000000	0.965456
4265.000000	0.965453
4264.000000	0.965466
4263.000000	0.965489
4262.000000	0.965508
4261.000000	0.965515
4260.000000	0.965509
4259.000000	0.965488
4258.000000	0.965463
4257.000000	0.965444
4256.000000	0.965441
4255.000000	0.965453
4254.000000	0.965476
4253.000000	0.965503
4252.000000	0.965528
4251.000000	0.965543
4250.000000	0.965550
4249.000000	0.965559
4248.000000	0.965576
4247.000000	0.965596
4246.000000	0.965608
4245.000000	0.965608
4244.000000	0.965599
4243.000000	0.965586
4242.000000	0.965581
4241.000000	0.965590
4240.000000	0.965611
4239.000000	0.965628
4238.000000	0.965633
4237.000000	0.965628
4236.000000	0.965621
4235.000000	0.965617
4234.000000	0.965618
4233.000000	0.965626
4232.000000	0.965636
4231.000000	0.965642
4230.000000	0.965642
4229.000000	0.965646
4228.000000	0.965656
4227.000000	0.965668
4226.000000	0.965674
4225.000000	0.965674
4224.000000	0.965671
4223.000000	0.965667
4222.000000	0.965664
4221.000000	0.965671
4220.000000	0.965690
4219.000000	0.965711
4218.000000	0.965728
4217.000000	0.965745
4216.000000	0.965761
4215.000000	0.965773
4214.000000	0.965778
4213.000000	0.965777
4212.000000	0.965773
4211.000000	0.965760
4210.000000	0.965742
4209.000000	0.965734
4208.000000	0.965748
4207.000000	0.965781
4206.000000	0.965819
4205.000000	0.965850
4204.000000	0.965866
4203.000000	0.965863
4202.000000	0.965842
4201.000000	0.965815
4200.000000	0.965793
4199.000000	0.965778
4198.000000	0.965764
4197.000000	0.965748
4196.000000	0.965729
4195.000000	0.965708
4194.000000	0.965693
4193.000000	0.965695
4192.000000	0.965713
4191.000000	0.965735
4190.000000	0.965748
4189.000000	0.965747
4188.000000	0.965734
4187.000000	0.965712
4186.000000	0.965684
4185.000000	0.965658
4184.000000	0.965641
4183.000000	0.965630
4182.000000	0.965622
4181.000000	0.965616
4180.000000	0.965611
4179.000000	0.965605
4178.000000	0.965605
4177.000000	0.965618
4176.000000	0.965643
4175.000000	0.965666
4174.000000	0.965674
4173.000000	0.965670
4172.000000	0.965658
4171.000000	0.965639
4170.000000	0.965613
4169.000000	0.965587
4168.000000	0.965570
4167.000000	0.965567
4166.000000	0.965579
4165.000000	0.965604
4164.000000	0.965631
4163.000000	0.965652
4162.000000	0.965665
4161.000000	0.965678
4160.000000	0.965696
4159.000000	0.965716
4158.000000	0.965725
4157.000000	0.965718
4156.000000	0.965695
4155.000000	0.965668
4154.000000	0.965652
4153.000000	0.965661
4152.000000	0.965689
4151.000000	0.965720
4150.000000	0.965739
4149.000000	0.965745
4148.000000	0.965748
4147.000000	0.965750
4146.000000	0.965755
4145.000000	0.965762
4144.000000	0.965768
4143.000000	0.965764
4142.000000	0.965751
4141.000000	0.965735
4140.000000	0.965726
4139.000000	0.965729
4138.000000	0.965750
4137.000000	0.965789
4136.000000	0.965831
4135.000000	0.965861
4134.000000	0.965873
4133.000000	0.965876
4132.000000	0.965877
4131.000000	0.965877
4130.000000	0.965874
4129.000000	0.965872
4128.000000	0.965872
4127.000000	0.965871
4126.000000	0.965874
4125.000000	0.965890
4124.000000	0.965918
4123.000000	0.965941
4122.000000	0.965943
4121.000000	0.965928
4120.000000	0.965911
4119.000000	0.965903
4118.000000	0.965911
4117.000000	0.965934
4116.000000	0.965964
4115.000000	0.965986
4114.000000	0.965995
4113.000000	0.965997
4112.000000	0.965995
4111.000000	0.965994
4110.000000	0.965997
4109.000000	0.966008
4108.000000	0.966020
4107.000000	0.966025
4106.000000	0.966025
4105.000000	0.966028
4104.000000	0.966037
4103.000000	0.966039
4102.000000	0.966030
4101.000000	0.966019
4100.000000	0.966012
4099.000000	0.966003
4098.000000	0.965987
4097.000000	0.965970
4096.000000	0.965960
4095.000000	0.965955
4094.000000	0.965949
4093.000000	0.965942
4092.000000	0.965933
4091.000000	0.965916
4090.000000	0.965891
4089.000000	0.965866
4088.000000	0.965853
4087.000000	0.965855
4086.000000	0.965863
4085.000000	0.965873
4084.000000	0.965881
4083.000000	0.965885
4082.000000	0.965880
4081.000000	0.965871
4080.000000	0.965863
4079.000000	0.965862
4078.000000	0.965867
4077.000000	0.965876
4076.000000	0.965880
4075.000000	0.965875
4074.000000	0.965862
4073.000000	0.965849
4072.000000	0.965845
4071.000000	0.965850
4070.000000	0.965866
4069.000000	0.965891
4068.000000	0.965915
4067.000000	0.965928
4066.000000	0.965929
4065.000000	0.965931
4064.000000	0.965942
4063.000000	0.965955
4062.000000	0.965959
4061.000000	0.965956
4060.000000	0.965953
4059.000000	0.965950
4058.000000	0.965943
4057.000000	0.965936
4056.000000	0.965938
4055.000000	0.965952
4054.000000	0.965973
4053.000000	0.965997
4052.000000	0.966019
4051.000000	0.966029
4050.000000	0.966026
4049.000000	0.966023
4048.000000	0.966026
4047.000000	0.966029
4046.000000	0.966026
4045.000000	0.966027
4044.000000	0.966044
4043.000000	0.966069
4042.000000	0.966083
4041.000000	0.966084
4040.000000	0.966087
4039.000000	0.966100
4038.000000	0.966115
4037.000000	0.966119
4036.000000	0.966110
4035.000000	0.966093
4034.000000	0.966078
4033.000000	0.966076
4032.000000	0.966086
4031.000000	0.966101
4030.000000	0.966117
4029.000000	0.966138
4028.000000	0.966159
4027.000000	0.966171
4026.000000	0.966174
4025.000000	0.966180
4024.000000	0.966193
4023.000000	0.966201
4022.000000	0.966198
4021.000000	0.966195
4020.000000	0.966207
4019.000000	0.966228
4018.000000	0.966247
4017.000000	0.966259
4016.000000	0.966270
4015.000000	0.966284
4014.000000	0.966299
4013.000000	0.966322
4012.000000	0.966352
4011.000000	0.966372
4010.000000	0.966367
4009.000000	0.966345
4008.000000	0.966322
4007.000000	0.966307
4006.000000	0.966293
4005.000000	0.966280
4004.000000	0.966274
4003.000000	0.966280
4002.000000	0.966290
4001.000000	0.966293
4000.000000	0.966290
3999.000000	0.966290
3998.000000	0.966293
3997.000000	0.966292
3996.000000	0.966285
3995.000000	0.966278
3994.000000	0.966273
3993.000000	0.966257
3992.000000	0.966220
3991.000000	0.966182
3990.000000	0.966176
3989.000000	0.966205
3988.000000	0.966232
3987.000000	0.966225
3986.000000	0.966194
3985.000000	0.966169
3984.000000	0.966164
3983.000000	0.966170
3982.000000	0.966176
3981.000000	0.966186
3980.000000	0.966200
3979.000000	0.966205
3978.000000	0.966191
3977.000000	0.966170
3976.000000	0.966155
3975.000000	0.966150
3974.000000	0.966158
3973.000000	0.966188
3972.000000	0.966236
3971.000000	0.966280
3970.000000	0.966308
3969.000000	0.966325
3968.000000	0.966333
3967.000000	0.966328
3966.000000	0.966311
3965.000000	0.966292
3964.000000	0.966280
3963.000000	0.966280
3962.000000	0.966304
3961.000000	0.966353
3960.000000	0.966395
3959.000000	0.966393
3958.000000	0.966361
3957.000000	0.966345
3956.000000	0.966360
3955.000000	0.966376
3954.000000	0.966373
3953.000000	0.966358
3952.000000	0.966345
3951.000000	0.966337
3950.000000	0.966324
3949.000000	0.966307
3948.000000	0.966311
3947.000000	0.966362
3946.000000	0.966425
3945.000000	0.966428
3944.000000	0.966366
3943.000000	0.966340
3942.000000	0.966432
3941.000000	0.966571
3940.000000	0.966601
3939.000000	0.966489
3938.000000	0.966366
3937.000000	0.966364
3936.000000	0.966445
3935.000000	0.966475
3934.000000	0.966422
3933.000000	0.966384
3932.000000	0.966431
3931.000000	0.966506
3930.000000	0.966532
3929.000000	0.966540
3928.000000	0.966586
3927.000000	0.966614
3926.000000	0.966549
3925.000000	0.966482
3924.000000	0.966542
3923.000000	0.966645
3922.000000	0.966619
3921.000000	0.966492
3920.000000	0.966436
3919.000000	0.966492
3918.000000	0.966533
3917.000000	0.966525
3916.000000	0.966560
3915.000000	0.966653
3914.000000	0.966681
3913.000000	0.966620
3912.000000	0.966560
3911.000000	0.966561
3910.000000	0.966572
3909.000000	0.966543
3908.000000	0.966477
3907.000000	0.966374
3906.000000	0.966201
3905.000000	0.965989
3904.000000	0.965892
3903.000000	0.965979
3902.000000	0.966088
3901.000000	0.966034
3900.000000	0.965908
3899.000000	0.965953
3898.000000	0.966159
3897.000000	0.966286
3896.000000	0.966237
3895.000000	0.966182
3894.000000	0.966240
3893.000000	0.966289
3892.000000	0.966156
3891.000000	0.966002
3890.000000	0.966057
3889.000000	0.966168
3888.000000	0.966008
3887.000000	0.965572
3886.000000	0.965296
3885.000000	0.965570
3884.000000	0.966099
3883.000000	0.966298
3882.000000	0.966117
3881.000000	0.965977
3880.000000	0.966181
3879.000000	0.966590
3878.000000	0.966803
3877.000000	0.966640
3876.000000	0.966236
3875.000000	0.965910
3874.000000	0.965999
3873.000000	0.966394
3872.000000	0.966478
3871.000000	0.965936
3870.000000	0.965365
3869.000000	0.965491
3868.000000	0.965972
3867.000000	0.965986
3866.000000	0.965574
3865.000000	0.965479
3864.000000	0.965929
3863.000000	0.966380
3862.000000	0.966403
3861.000000	0.966200
3860.000000	0.966009
3859.000000	0.965803
3858.000000	0.965531
3857.000000	0.965279
3856.000000	0.965044
3855.000000	0.964598
3854.000000	0.963971
3853.000000	0.963738
3852.000000	0.963981
3851.000000	0.964124
3850.000000	0.964152
3849.000000	0.964525
3848.000000	0.965288
3847.000000	0.966026
3846.000000	0.966408
3845.000000	0.966480
3844.000000	0.966418
3843.000000	0.966392
3842.000000	0.966425
3841.000000	0.966381
3840.000000	0.966170
3839.000000	0.965901
3838.000000	0.965697
3837.000000	0.965570
3836.000000	0.965510
3835.000000	0.965562
3834.000000	0.965748
3833.000000	0.965996
3832.000000	0.966254
3831.000000	0.966517
3830.000000	0.966729
3829.000000	0.966799
3828.000000	0.966654
3827.000000	0.966410
3826.000000	0.966353
3825.000000	0.966571
3824.000000	0.966737
3823.000000	0.966507
3822.000000	0.965963
3821.000000	0.965720
3820.000000	0.966110
3819.000000	0.966497
3818.000000	0.966267
3817.000000	0.965641
3816.000000	0.965371
3815.000000	0.965758
3814.000000	0.966152
3813.000000	0.966019
3812.000000	0.965759
3811.000000	0.965934
3810.000000	0.966433
3809.000000	0.966656
3808.000000	0.966298
3807.000000	0.965816
3806.000000	0.965784
3805.000000	0.966038
3804.000000	0.966025
3803.000000	0.965615
3802.000000	0.965232
3801.000000	0.965431
3800.000000	0.965980
3799.000000	0.966139
3798.000000	0.965904
3797.000000	0.965864
3796.000000	0.966315
3795.000000	0.966902
3794.000000	0.967110
3793.000000	0.966926
3792.000000	0.966755
3791.000000	0.966803
3790.000000	0.966935
3789.000000	0.966999
3788.000000	0.967018
3787.000000	0.967022
3786.000000	0.966965
3785.000000	0.966873
3784.000000	0.966883
3783.000000	0.967020
3782.000000	0.967106
3781.000000	0.967035
3780.000000	0.966927
3779.000000	0.966977
3778.000000	0.967147
3777.000000	0.967182
3776.000000	0.966964
3775.000000	0.966715
3774.000000	0.966698
3773.000000	0.966853
3772.000000	0.966881
3771.000000	0.966714
3770.000000	0.966637
3769.000000	0.966813
3768.000000	0.966988
3767.000000	0.966875
3766.000000	0.966589
3765.000000	0.966511
3764.000000	0.966756
3763.000000	0.966975
3762.000000	0.966869
3761.000000	0.966653
3760.000000	0.966671
3759.000000	0.966828
3758.000000	0.966780
3757.000000	0.966534
3756.000000	0.966309
3755.000000	0.966073
3754.000000	0.965663
3753.000000	0.965149
3752.000000	0.964726
3751.000000	0.964288
3750.000000	0.963691
3749.000000	0.963293
3748.000000	0.963453
3747.000000	0.963857
3746.000000	0.963922
3745.000000	0.963679
3744.000000	0.963890
3743.000000	0.964529
3742.000000	0.964629
3741.000000	0.964223
3740.000000	0.964179
3739.000000	0.964704
3738.000000	0.965134
3737.000000	0.965035
3736.000000	0.964886
3735.000000	0.965217
3734.000000	0.965728
3733.000000	0.965881
3732.000000	0.965805
3731.000000	0.965893
3730.000000	0.966111
3729.000000	0.966171
3728.000000	0.966053
3727.000000	0.966056
3726.000000	0.966377
3725.000000	0.966767
3724.000000	0.966911
3723.000000	0.966911
3722.000000	0.967009
3721.000000	0.967222
3720.000000	0.967371
3719.000000	0.967319
3718.000000	0.967099
3717.000000	0.966886
3716.000000	0.966742
3715.000000	0.966560
3714.000000	0.966298
3713.000000	0.966068
3712.000000	0.965980
3711.000000	0.966007
3710.000000	0.966056
3709.000000	0.966094
3708.000000	0.966160
3707.000000	0.966310
3706.000000	0.966532
3705.000000	0.966742
3704.000000	0.966880
3703.000000	0.966956
3702.000000	0.967019
3701.000000	0.967116
3700.000000	0.967223
3699.000000	0.967214
3698.000000	0.967023
3697.000000	0.966817
3696.000000	0.966783
3695.000000	0.966817
3694.000000	0.966698
3693.000000	0.966464
3692.000000	0.966334
3691.000000	0.966341
3690.000000	0.966291
3689.000000	0.966099
3688.000000	0.965937
3687.000000	0.965914
3686.000000	0.965914
3685.000000	0.965910
3684.000000	0.966082
3683.000000	0.966472
3682.000000	0.966774
3681.000000	0.966668
3680.000000	0.966356
3679.000000	0.966259
3678.000000	0.966292
3677.000000	0.965976
3676.000000	0.965374
3675.000000	0.965220
3674.000000	0.965597
3673.000000	0.965774
3672.000000	0.965496
3671.000000	0.965214
3670.000000	0.965417
3669.000000	0.966012
3668.000000	0.966425
3667.000000	0.966501
3666.000000	0.966567
3665.000000	0.966807
3664.000000	0.967097
3663.000000	0.967236
3662.000000	0.967180
3661.000000	0.967056
3660.000000	0.967016
3659.000000	0.967031
3658.000000	0.966945
3657.000000	0.966704
3656.000000	0.966520
3655.000000	0.966527
3654.000000	0.966514
3653.000000	0.966288
3652.000000	0.965987
3651.000000	0.965905
3650.000000	0.966117
3649.000000	0.966354
3648.000000	0.966369
3647.000000	0.966323
3646.000000	0.966450
3645.000000	0.966705
3644.000000	0.966910
3643.000000	0.967027
3642.000000	0.967154
3641.000000	0.967324
3640.000000	0.967414
3639.000000	0.967362
3638.000000	0.967302
3637.000000	0.967328
3636.000000	0.967306
3635.000000	0.967098
3634.000000	0.966846
3633.000000	0.966757
3632.000000	0.966733
3631.000000	0.966514
3630.000000	0.966088
3629.000000	0.965880
3628.000000	0.966165
3627.000000	0.966492
3626.000000	0.966481
3625.000000	0.966421
3624.000000	0.966652
3623.000000	0.967100
3622.000000	0.967449
3621.000000	0.967554
3620.000000	0.967560
3619.000000	0.967615
3618.000000	0.967687
3617.000000	0.967663
3616.000000	0.967497
3615.000000	0.967244
3614.000000	0.967044
3613.000000	0.967002
3612.000000	0.967050
3611.000000	0.967002
3610.000000	0.966804
3609.000000	0.966627
3608.000000	0.966661
3607.000000	0.966874
3606.000000	0.967087
3605.000000	0.967218
3604.000000	0.967325
3603.000000	0.967438
3602.000000	0.967509
3601.000000	0.967538
3600.000000	0.967594
3599.000000	0.967664
3598.000000	0.967691
3597.000000	0.967688
3596.000000	0.967695
3595.000000	0.967705
3594.000000	0.967710
3593.000000	0.967690
3592.000000	0.967639
3591.000000	0.967565
3590.000000	0.967472
3589.000000	0.967390
3588.000000	0.967403
3587.000000	0.967559
3586.000000	0.967755
3585.000000	0.967842
3584.000000	0.967831
3583.000000	0.967834
3582.000000	0.967907
3581.000000	0.968020
3580.000000	0.968127
3579.000000	0.968210
3578.000000	0.968268
3577.000000	0.968317
3576.000000	0.968358
3575.000000	0.968374
3574.000000	0.968349
3573.000000	0.968289
3572.000000	0.968216
3571.000000	0.968163
3570.000000	0.968122
3569.000000	0.968075
3568.000000	0.968069
3567.000000	0.968175
3566.000000	0.968358
3565.000000	0.968482
3564.000000	0.968495
3563.000000	0.968480
3562.000000	0.968524
3561.000000	0.968627
3560.000000	0.968735
3559.000000	0.968807
3558.000000	0.968837
3557.000000	0.968848
3556.000000	0.968869
3555.000000	0.968899
3554.000000	0.968912
3553.000000	0.968913
3552.000000	0.968939
3551.000000	0.968996
3550.000000	0.969031
3549.000000	0.969002
3548.000000	0.968951
3547.000000	0.968948
3546.000000	0.969012
3545.000000	0.969105
3544.000000	0.969187
3543.000000	0.969238
3542.000000	0.969259
3541.000000	0.969270
3540.000000	0.969296
3539.000000	0.969339
3538.000000	0.969386
3537.000000	0.969437
3536.000000	0.969511
3535.000000	0.969598
3534.000000	0.969661
3533.000000	0.969680
3532.000000	0.969680
3531.000000	0.969693
3530.000000	0.969713
3529.000000	0.969721
3528.000000	0.969730
3527.000000	0.969757
3526.000000	0.969785
3525.000000	0.969788
3524.000000	0.969793
3523.000000	0.969846
3522.000000	0.969945
3521.000000	0.970030
3520.000000	0.970057
3519.000000	0.970047
3518.000000	0.970055
3517.000000	0.970097
3516.000000	0.970139
3515.000000	0.970154
3514.000000	0.970164
3513.000000	0.970193
3512.000000	0.970227
3511.000000	0.970243
3510.000000	0.970242
3509.000000	0.970249
3508.000000	0.970269
3507.000000	0.970277
3506.000000	0.970251
3505.000000	0.970210
3504.000000	0.970205
3503.000000	0.970261
3502.000000	0.970356
3501.000000	0.970449
3500.000000	0.970518
3499.000000	0.970565
3498.000000	0.970606
3497.000000	0.970659
3496.000000	0.970730
3495.000000	0.970805
3494.000000	0.970870
3493.000000	0.970929
3492.000000	0.970990
3491.000000	0.971057
3490.000000	0.971119
3489.000000	0.971168
3488.000000	0.971211
3487.000000	0.971262
3486.000000	0.971324
3485.000000	0.971385
3484.000000	0.971431
3483.000000	0.971462
3482.000000	0.971490
3481.000000	0.971530
3480.000000	0.971588
3479.000000	0.971659
3478.000000	0.971734
3477.000000	0.971804
3476.000000	0.971868
3475.000000	0.971931
3474.000000	0.971996
3473.000000	0.972061
3472.000000	0.972116
3471.000000	0.972153
3470.000000	0.972179
3469.000000	0.972207
3468.000000	0.972248
3467.000000	0.972313
3466.000000	0.972405
3465.000000	0.972511
3464.000000	0.972605
3463.000000	0.972678
3462.000000	0.972740
3461.000000	0.972810
3460.000000	0.972890
3459.000000	0.972977
3458.000000	0.973069
3457.000000	0.973163
3456.000000	0.973251
3455.000000	0.973329
3454.000000	0.973395
3453.000000	0.973456
3452.000000	0.973525
3451.000000	0.973608
3450.000000	0.973690
3449.000000	0.973753
3448.000000	0.973802
3447.000000	0.973870
3446.000000	0.973967
3445.000000	0.974059
3444.000000	0.974116
3443.000000	0.974156
3442.000000	0.974213
3441.000000	0.974292
3440.000000	0.974359
3439.000000	0.974391
3438.000000	0.974409
3437.000000	0.974442
3436.000000	0.974498
3435.000000	0.974564
3434.000000	0.974627
3433.000000	0.974686
3432.000000	0.974746
3431.000000	0.974812
3430.000000	0.974880
3429.000000	0.974946
3428.000000	0.975011
3427.000000	0.975075
3426.000000	0.975137
3425.000000	0.975193
3424.000000	0.975235
3423.000000	0.975256
3422.000000	0.975261
3421.000000	0.975270
3420.000000	0.975303
3419.000000	0.975359
3418.000000	0.975415
3417.000000	0.975452
3416.000000	0.975469
3415.000000	0.975475
3414.000000	0.975484
3413.000000	0.975503
3412.000000	0.975533
3411.000000	0.975565
3410.000000	0.975591
3409.000000	0.975618
3408.000000	0.975656
3407.000000	0.975701
3406.000000	0.975735
3405.000000	0.975746
3404.000000	0.975733
3403.000000	0.975710
3402.000000	0.975700
3401.000000	0.975722
3400.000000	0.975772
3399.000000	0.975828
3398.000000	0.975875
3397.000000	0.975916
3396.000000	0.975948
3395.000000	0.975956
3394.000000	0.975940
3393.000000	0.975932
3392.000000	0.975963
3391.000000	0.976027
3390.000000	0.976091
3389.000000	0.976137
3388.000000	0.976170
3387.000000	0.976201
3386.000000	0.976234
3385.000000	0.976268
3384.000000	0.976297
3383.000000	0.976312
3382.000000	0.976315
3381.000000	0.976324
3380.000000	0.976349
3379.000000	0.976382
3378.000000	0.976408
3377.000000	0.976423
3376.000000	0.976438
3375.000000	0.976456
3374.000000	0.976468
3373.000000	0.976464
3372.000000	0.976440
3371.000000	0.976403
3370.000000	0.976366
3369.000000	0.976345
3368.000000	0.976351
3367.000000	0.976381
3366.000000	0.976430
3365.000000	0.976485
3364.000000	0.976533
3363.000000	0.976564
3362.000000	0.976584
3361.000000	0.976606
3360.000000	0.976633
3359.000000	0.976656
3358.000000	0.976664
3357.000000	0.976660
3356.000000	0.976649
3355.000000	0.976633
3354.000000	0.976611
3353.000000	0.976591
3352.000000	0.976584
3351.000000	0.976596
3350.000000	0.976627
3349.000000	0.976668
3348.000000	0.976705
3347.000000	0.976729
3346.000000	0.976744
3345.000000	0.976762
3344.000000	0.976782
3343.000000	0.976793
3342.000000	0.976788
3341.000000	0.976772
3340.000000	0.976757
3339.000000	0.976748
3338.000000	0.976746
3337.000000	0.976754
3336.000000	0.976772
3335.000000	0.976797
3334.000000	0.976819
3333.000000	0.976834
3332.000000	0.976842
3331.000000	0.976840
3330.000000	0.976826
3329.000000	0.976802
3328.000000	0.976771
3327.000000	0.976744
3326.000000	0.976732
3325.000000	0.976742
3324.000000	0.976764
3323.000000	0.976779
3322.000000	0.976778
3321.000000	0.976770
3320.000000	0.976768
3319.000000	0.976770
3318.000000	0.976776
3317.000000	0.976783
3316.000000	0.976786
3315.000000	0.976779
3314.000000	0.976762
3313.000000	0.976740
3312.000000	0.976713
3311.000000	0.976675
3310.000000	0.976628
3309.000000	0.976590
3308.000000	0.976574
3307.000000	0.976580
3306.000000	0.976600
3305.000000	0.976634
3304.000000	0.976680
3303.000000	0.976725
3302.000000	0.976757
3301.000000	0.976774
3300.000000	0.976784
3299.000000	0.976789
3298.000000	0.976792
3297.000000	0.976797
3296.000000	0.976800
3295.000000	0.976792
3294.000000	0.976774
3293.000000	0.976763
3292.000000	0.976771
3291.000000	0.976796
3290.000000	0.976823
3289.000000	0.976846
3288.000000	0.976864
3287.000000	0.976879
3286.000000	0.976890
3285.000000	0.976899
3284.000000	0.976908
3283.000000	0.976918
3282.000000	0.976930
3281.000000	0.976945
3280.000000	0.976959
3279.000000	0.976957
3278.000000	0.976937
3277.000000	0.976912
3276.000000	0.976898
3275.000000	0.976894
3274.000000	0.976889
3273.000000	0.976880
3272.000000	0.976877
3271.000000	0.976895
3270.000000	0.976935
3269.000000	0.976985
3268.000000	0.977028
3267.000000	0.977057
3266.000000	0.977078
3265.000000	0.977105
3264.000000	0.977134
3263.000000	0.977152
3262.000000	0.977157
3261.000000	0.977158
3260.000000	0.977162
3259.000000	0.977166
3258.000000	0.977167
3257.000000	0.977169
3256.000000	0.977176
3255.000000	0.977192
3254.000000	0.977216
3253.000000	0.977248
3252.000000	0.977276
3251.000000	0.977285
3250.000000	0.977273
3249.000000	0.977260
3248.000000	0.977262
3247.000000	0.977278
3246.000000	0.977303
3245.000000	0.977336
3244.000000	0.977373
3243.000000	0.977407
3242.000000	0.977431
3241.000000	0.977449
3240.000000	0.977465
3239.000000	0.977474
3238.000000	0.977469
3237.000000	0.977452
3236.000000	0.977431
3235.000000	0.977415
3234.000000	0.977410
3233.000000	0.977422
3232.000000	0.977444
3231.000000	0.977466
3230.000000	0.977484
3229.000000	0.977507
3228.000000	0.977535
3227.000000	0.977558
3226.000000	0.977568
3225.000000	0.977567
3224.000000	0.977564
3223.000000	0.977561
3222.000000	0.977553
3221.000000	0.977544
3220.000000	0.977541
3219.000000	0.977546
3218.000000	0.977553
3217.000000	0.977555
3216.000000	0.977549
3215.000000	0.977542
3214.000000	0.977545
3213.000000	0.977561
3212.000000	0.977580
3211.000000	0.977597
3210.000000	0.977614
3209.000000	0.977636
3208.000000	0.977655
3207.000000	0.977661
3206.000000	0.977659
3205.000000	0.977663
3204.000000	0.977682
3203.000000	0.977706
3202.000000	0.977719
3201.000000	0.977716
3200.000000	0.977702
3199.000000	0.977683
3198.000000	0.977672
3197.000000	0.977678
3196.000000	0.977696
3195.000000	0.977717
3194.000000	0.977733
3193.000000	0.977751
3192.000000	0.977769
3191.000000	0.977781
3190.000000	0.977784
3189.000000	0.977779
3188.000000	0.977772
3187.000000	0.977768
3186.000000	0.977772
3185.000000	0.977788
3184.000000	0.977804
3183.000000	0.977809
3182.000000	0.977801
3181.000000	0.977794
3180.000000	0.977798
3179.000000	0.977817
3178.000000	0.977850
3177.000000	0.977885
3176.000000	0.977907
3175.000000	0.977903
3174.000000	0.977885
3173.000000	0.977872
3172.000000	0.977874
3171.000000	0.977883
3170.000000	0.977892
3169.000000	0.977904
3168.000000	0.977919
3167.000000	0.977930
3166.000000	0.977939
3165.000000	0.977948
3164.000000	0.977962
3163.000000	0.977974
3162.000000	0.977985
3161.000000	0.977997
3160.000000	0.978008
3159.000000	0.978012
3158.000000	0.978008
3157.000000	0.978002
3156.000000	0.977995
3155.000000	0.977985
3154.000000	0.977975
3153.000000	0.977978
3152.000000	0.978005
3151.000000	0.978050
3150.000000	0.978097
3149.000000	0.978133
3148.000000	0.978152
3147.000000	0.978162
3146.000000	0.978170
3145.000000	0.978183
3144.000000	0.978192
3143.000000	0.978189
3142.000000	0.978173
3141.000000	0.978155
3140.000000	0.978142
3139.000000	0.978136
3138.000000	0.978136
3137.000000	0.978141
3136.000000	0.978144
3135.000000	0.978136
3134.000000	0.978124
3133.000000	0.978117
3132.000000	0.978114
3131.000000	0.978111
3130.000000	0.978108
3129.000000	0.978114
3128.000000	0.978129
3127.000000	0.978140
3126.000000	0.978136
3125.000000	0.978118
3124.000000	0.978094
3123.000000	0.978068
3122.000000	0.978040
3121.000000	0.978013
3120.000000	0.977993
3119.000000	0.977982
3118.000000	0.977983
3117.000000	0.977999
3116.000000	0.978027
3115.000000	0.978060
3114.000000	0.978093
3113.000000	0.978121
3112.000000	0.978139
3111.000000	0.978147
3110.000000	0.978153
3109.000000	0.978164
3108.000000	0.978184
3107.000000	0.978208
3106.000000	0.978229
3105.000000	0.978241
3104.000000	0.978241
3103.000000	0.978228
3102.000000	0.978208
3101.000000	0.978192
3100.000000	0.978185
3099.000000	0.978186
3098.000000	0.978192
3097.000000	0.978202
3096.000000	0.978212
3095.000000	0.978212
3094.000000	0.978199
3093.000000	0.978182
3092.000000	0.978171
3091.000000	0.978170
3090.000000	0.978174
3089.000000	0.978178
3088.000000	0.978175
3087.000000	0.978160
3086.000000	0.978132
3085.000000	0.978099
3084.000000	0.978072
3083.000000	0.978051
3082.000000	0.978031
3081.000000	0.978007
3080.000000	0.977991
3079.000000	0.977996
3078.000000	0.978028
3077.000000	0.978076
3076.000000	0.978117
3075.000000	0.978135
3074.000000	0.978134
3073.000000	0.978124
3072.000000	0.978112
3071.000000	0.978096
3070.000000	0.978076
3069.000000	0.978058
3068.000000	0.978044
3067.000000	0.978035
3066.000000	0.978032
3065.000000	0.978042
3064.000000	0.978064
3063.000000	0.978090
3062.000000	0.978109
3061.000000	0.978116
3060.000000	0.978114
3059.000000	0.978102
3058.000000	0.978080
3057.000000	0.978059
3056.000000	0.978048
3055.000000	0.978045
3054.000000	0.978044
3053.000000	0.978043
3052.000000	0.978045
3051.000000	0.978052
3050.000000	0.978057
3049.000000	0.978052
3048.000000	0.978033
3047.000000	0.977997
3046.000000	0.977952
3045.000000	0.977913
3044.000000	0.977888
3043.000000	0.977876
3042.000000	0.977876
3041.000000	0.977888
3040.000000	0.977905
3039.000000	0.977912
3038.000000	0.977895
3037.000000	0.977854
3036.000000	0.977803
3035.000000	0.977758
3034.000000	0.977729
3033.000000	0.977722
3032.000000	0.977732
3031.000000	0.977750
3030.000000	0.977766
3029.000000	0.977771
3028.000000	0.977761
3027.000000	0.977738
3026.000000	0.977710
3025.000000	0.977692
3024.000000	0.977688
3023.000000	0.977693
3022.000000	0.977700
3021.000000	0.977699
3020.000000	0.977683
3019.000000	0.977646
3018.000000	0.977587
3017.000000	0.977510
3016.000000	0.977429
3015.000000	0.977360
3014.000000	0.977318
3013.000000	0.977311
3012.000000	0.977331
3011.000000	0.977363
3010.000000	0.977394
3009.000000	0.977422
3008.000000	0.977447
3007.000000	0.977467
3006.000000	0.977479
3005.000000	0.977484
3004.000000	0.977483
3003.000000	0.977474
3002.000000	0.977462
3001.000000	0.977453
3000.000000	0.977452
2999.000000	0.977457
2998.000000	0.977464
2997.000000	0.977469
2996.000000	0.977465
2995.000000	0.977446
2994.000000	0.977420
2993.000000	0.977403
2992.000000	0.977400
2991.000000	0.977406
2990.000000	0.977414
2989.000000	0.977421
2988.000000	0.977429
2987.000000	0.977431
2986.000000	0.977423
2985.000000	0.977406
2984.000000	0.977383
2983.000000	0.977359
2982.000000	0.977343
2981.000000	0.977342
2980.000000	0.977355
2979.000000	0.977369
2978.000000	0.977371
2977.000000	0.977363
2976.000000	0.977354
2975.000000	0.977352
2974.000000	0.977364
2973.000000	0.977390
2972.000000	0.977423
2971.000000	0.977454
2970.000000	0.977476
2969.000000	0.977487
2968.000000	0.977482
2967.000000	0.977461
2966.000000	0.977433
2965.000000	0.977407
2964.000000	0.977389
2963.000000	0.977380
2962.000000	0.977379
2961.000000	0.977388
2960.000000	0.977395
2959.000000	0.977388
2958.000000	0.977367
2957.000000	0.977347
2956.000000	0.977340
2955.000000	0.977342
2954.000000	0.977340
2953.000000	0.977328
2952.000000	0.977305
2951.000000	0.977277
2950.000000	0.977255
2949.000000	0.977246
2948.000000	0.977247
2947.000000	0.977250
2946.000000	0.977251
2945.000000	0.977257
2944.000000	0.977273
2943.000000	0.977292
2942.000000	0.977309
2941.000000	0.977323
2940.000000	0.977330
2939.000000	0.977320
2938.000000	0.977289
2937.000000	0.977244
2936.000000	0.977198
2935.000000	0.977156
2934.000000	0.977121
2933.000000	0.977096
2932.000000	0.977081
2931.000000	0.977074
2930.000000	0.977075
2929.000000	0.977081
2928.000000	0.977086
2927.000000	0.977078
2926.000000	0.977053
2925.000000	0.977022
2924.000000	0.976996
2923.000000	0.976974
2922.000000	0.976947
2921.000000	0.976914
2920.000000	0.976880
2919.000000	0.976855
2918.000000	0.976845
2917.000000	0.976846
2916.000000	0.976846
2915.000000	0.976834
2914.000000	0.976810
2913.000000	0.976780
2912.000000	0.976753
2911.000000	0.976732
2910.000000	0.976720
2909.000000	0.976722
2908.000000	0.976728
2907.000000	0.976725
2906.000000	0.976706
2905.000000	0.976680
2904.000000	0.976653
2903.000000	0.976632
2902.000000	0.976620
2901.000000	0.976620
2900.000000	0.976632
2899.000000	0.976641
2898.000000	0.976642
2897.000000	0.976636
2896.000000	0.976632
2895.000000	0.976628
2894.000000	0.976620
2893.000000	0.976602
2892.000000	0.976575
2891.000000	0.976542
2890.000000	0.976518
2889.000000	0.976514
2888.000000	0.976527
2887.000000	0.976541
2886.000000	0.976544
2885.000000	0.976538
2884.000000	0.976527
2883.000000	0.976516
2882.000000	0.976509
2881.000000	0.976512
2880.000000	0.976525
2879.000000	0.976543
2878.000000	0.976555
2877.000000	0.976554
2876.000000	0.976538
2875.000000	0.976515
2874.000000	0.976501
2873.000000	0.976512
2872.000000	0.976548
2871.000000	0.976594
2870.000000	0.976638
2869.000000	0.976674
2868.000000	0.976697
2867.000000	0.976705
2866.000000	0.976703
2865.000000	0.976698
2864.000000	0.976686
2863.000000	0.976658
2862.000000	0.976610
2861.000000	0.976552
2860.000000	0.976495
2859.000000	0.976443
2858.000000	0.976400
2857.000000	0.976371
2856.000000	0.976358
2855.000000	0.976359
2854.000000	0.976371
2853.000000	0.976393
2852.000000	0.976420
2851.000000	0.976438
2850.000000	0.976437
2849.000000	0.976412
2848.000000	0.976366
2847.000000	0.976306
2846.000000	0.976245
2845.000000	0.976196
2844.000000	0.976159
2843.000000	0.976124
2842.000000	0.976088
2841.000000	0.976054
2840.000000	0.976023
2839.000000	0.975993
2838.000000	0.975964
2837.000000	0.975944
2836.000000	0.975936
2835.000000	0.975933
2834.000000	0.975928
2833.000000	0.975917
2832.000000	0.975903
2831.000000	0.975887
2830.000000	0.975875
2829.000000	0.975870
2828.000000	0.975868
2827.000000	0.975858
2826.000000	0.975838
2825.000000	0.975817
2824.000000	0.975804
2823.000000	0.975800
2822.000000	0.975799
2821.000000	0.975798
2820.000000	0.975794
2819.000000	0.975790
2818.000000	0.975787
2817.000000	0.975787
2816.000000	0.975785
2815.000000	0.975774
2814.000000	0.975755
2813.000000	0.975733
2812.000000	0.975713
2811.000000	0.975696
2810.000000	0.975684
2809.000000	0.975681
2808.000000	0.975684
2807.000000	0.975688
2806.000000	0.975691
2805.000000	0.975697
2804.000000	0.975702
2803.000000	0.975698
2802.000000	0.975683
2801.000000	0.975663
2800.000000	0.975646
2799.000000	0.975636
2798.000000	0.975635
2797.000000	0.975640
2796.000000	0.975644
2795.000000	0.975642
2794.000000	0.975632
2793.000000	0.975620
2792.000000	0.975603
2791.000000	0.975582
2790.000000	0.975562
2789.000000	0.975554
2788.000000	0.975557
2787.000000	0.975557
2786.000000	0.975553
2785.000000	0.975551
2784.000000	0.975551
2783.000000	0.975545
2782.000000	0.975533
2781.000000	0.975525
2780.000000	0.975527
2779.000000	0.975533
2778.000000	0.975533
2777.000000	0.975526
2776.000000	0.975519
2775.000000	0.975513
2774.000000	0.975510
2773.000000	0.975508
2772.000000	0.975507
2771.000000	0.975501
2770.000000	0.975494
2769.000000	0.975493
2768.000000	0.975498
2767.000000	0.975501
2766.000000	0.975497
2765.000000	0.975496
2764.000000	0.975505
2763.000000	0.975517
2762.000000	0.975521
2761.000000	0.975512
2760.000000	0.975497
2759.000000	0.975476
2758.000000	0.975456
2757.000000	0.975441
2756.000000	0.975437
2755.000000	0.975438
2754.000000	0.975431
2753.000000	0.975415
2752.000000	0.975394
2751.000000	0.975373
2750.000000	0.975357
2749.000000	0.975348
2748.000000	0.975346
2747.000000	0.975347
2746.000000	0.975345
2745.000000	0.975335
2744.000000	0.975321
2743.000000	0.975310
2742.000000	0.975306
2741.000000	0.975305
2740.000000	0.975300
2739.000000	0.975284
2738.000000	0.975260
2737.000000	0.975238
2736.000000	0.975222
2735.000000	0.975211
2734.000000	0.975204
2733.000000	0.975203
2732.000000	0.975209
2731.000000	0.975219
2730.000000	0.975228
2729.000000	0.975230
2728.000000	0.975225
2727.000000	0.975214
2726.000000	0.975203
2725.000000	0.975197
2724.000000	0.975195
2723.000000	0.975196
2722.000000	0.975205
2721.000000	0.975224
2720.000000	0.975241
2719.000000	0.975241
2718.000000	0.975224
2717.000000	0.975205
2716.000000	0.975196
2715.000000	0.975195
2714.000000	0.975195
2713.000000	0.975195
2712.000000	0.975195
2711.000000	0.975195
2710.000000	0.975195
2709.000000	0.975194
2708.000000	0.975194
2707.000000	0.975190
2706.000000	0.975185
2705.000000	0.975181
2704.000000	0.975181
2703.000000	0.975182
2702.000000	0.975185
2701.000000	0.975188
2700.000000	0.975187
2699.000000	0.975186
2698.000000	0.975190
2697.000000	0.975202
2696.000000	0.975212
2695.000000	0.975208
2694.000000	0.975193
2693.000000	0.975182
2692.000000	0.975181
2691.000000	0.975185
2690.000000	0.975184
2689.000000	0.975175
2688.000000	0.975163
2687.000000	0.975154
2686.000000	0.975154
2685.000000	0.975162
2684.000000	0.975171
2683.000000	0.975172
2682.000000	0.975166
2681.000000	0.975162
2680.000000	0.975163
2679.000000	0.975165
2678.000000	0.975169
2677.000000	0.975178
2676.000000	0.975189
2675.000000	0.975197
2674.000000	0.975200
2673.000000	0.975206
2672.000000	0.975214
2671.000000	0.975218
2670.000000	0.975217
2669.000000	0.975214
2668.000000	0.975215
2667.000000	0.975218
2666.000000	0.975219
2665.000000	0.975215
2664.000000	0.975203
2663.000000	0.975185
2662.000000	0.975170
2661.000000	0.975165
2660.000000	0.975165
2659.000000	0.975161
2658.000000	0.975152
2657.000000	0.975145
2656.000000	0.975140
2655.000000	0.975131
2654.000000	0.975113
2653.000000	0.975093
2652.000000	0.975080
2651.000000	0.975076
2650.000000	0.975081
2649.000000	0.975095
2648.000000	0.975112
2647.000000	0.975122
2646.000000	0.975122
2645.000000	0.975118
2644.000000	0.975114
2643.000000	0.975110
2642.000000	0.975106
2641.000000	0.975106
2640.000000	0.975107
2639.000000	0.975103
2638.000000	0.975099
2637.000000	0.975103
2636.000000	0.975116
2635.000000	0.975126
2634.000000	0.975126
2633.000000	0.975119
2632.000000	0.975114
2631.000000	0.975112
2630.000000	0.975114
2629.000000	0.975121
2628.000000	0.975131
2627.000000	0.975139
2626.000000	0.975144
2625.000000	0.975153
2624.000000	0.975167
2623.000000	0.975181
2622.000000	0.975186
2621.000000	0.975182
2620.000000	0.975169
2619.000000	0.975153
2618.000000	0.975144
2617.000000	0.975149
2616.000000	0.975164
2615.000000	0.975179
2614.000000	0.975191
2613.000000	0.975196
2612.000000	0.975193
2611.000000	0.975177
2610.000000	0.975158
2609.000000	0.975147
2608.000000	0.975150
2607.000000	0.975160
2606.000000	0.975170
2605.000000	0.975183
2604.000000	0.975196
2603.000000	0.975202
2602.000000	0.975200
2601.000000	0.975196
2600.000000	0.975194
2599.000000	0.975192
2598.000000	0.975191
2597.000000	0.975194
2596.000000	0.975201
2595.000000	0.975209
2594.000000	0.975218
2593.000000	0.975232
2592.000000	0.975246
2591.000000	0.975251
2590.000000	0.975244
2589.000000	0.975232
2588.000000	0.975226
2587.000000	0.975231
2586.000000	0.975245
2585.000000	0.975263
2584.000000	0.975278
2583.000000	0.975283
2582.000000	0.975283
2581.000000	0.975286
2580.000000	0.975297
2579.000000	0.975307
2578.000000	0.975312
2577.000000	0.975312
2576.000000	0.975307
2575.000000	0.975297
2574.000000	0.975286
2573.000000	0.975285
2572.000000	0.975298
2571.000000	0.975316
2570.000000	0.975328
2569.000000	0.975331
2568.000000	0.975324
2567.000000	0.975313
2566.000000	0.975302
2565.000000	0.975292
2564.000000	0.975285
2563.000000	0.975280
2562.000000	0.975280
2561.000000	0.975283
2560.000000	0.975284
2559.000000	0.975277
2558.000000	0.975263
2557.000000	0.975251
2556.000000	0.975243
2555.000000	0.975236
2554.000000	0.975234
2553.000000	0.975241
2552.000000	0.975254
2551.000000	0.975264
2550.000000	0.975270
2549.000000	0.975276
2548.000000	0.975281
2547.000000	0.975280
2546.000000	0.975277
2545.000000	0.975279
2544.000000	0.975288
2543.000000	0.975300
2542.000000	0.975309
2541.000000	0.975316
2540.000000	0.975321
2539.000000	0.975320
2538.000000	0.975317
2537.000000	0.975315
2536.000000	0.975312
2535.000000	0.975303
2534.000000	0.975293
2533.000000	0.975292
2532.000000	0.975302
2531.000000	0.975315
2530.000000	0.975324
2529.000000	0.975334
2528.000000	0.975348
2527.000000	0.975364
2526.000000	0.975378
2525.000000	0.975391
2524.000000	0.975399
2523.000000	0.975399
2522.000000	0.975396
2521.000000	0.975400
2520.000000	0.975410
2519.000000	0.975421
2518.000000	0.975431
2517.000000	0.975442
2516.000000	0.975451
2515.000000	0.975454
2514.000000	0.975448
2513.000000	0.975444
2512.000000	0.975446
2511.000000	0.975451
2510.000000	0.975455
2509.000000	0.975458
2508.000000	0.975462
2507.000000	0.975465
2506.000000	0.975469
2505.000000	0.975476
2504.000000	0.975486
2503.000000	0.975496
2502.000000	0.975505
2501.000000	0.975514
2500.000000	0.975523
2499.000000	0.975530
2498.000000	0.975538
2497.000000	0.975552
2496.000000	0.975568
2495.000000	0.975577
2494.000000	0.975579
2493.000000	0.975580
2492.000000	0.975582
2491.000000	0.975582
2490.000000	0.975583
2489.000000	0.975591
2488.000000	0.975606
2487.000000	0.975623
2486.000000	0.975642
2485.000000	0.975667
2484.000000	0.975693
2483.000000	0.975708
2482.000000	0.975710
2481.000000	0.975705
2480.000000	0.975699
2479.000000	0.975690
2478.000000	0.975683
2477.000000	0.975681
2476.000000	0.975687
2475.000000	0.975694
2474.000000	0.975699
2473.000000	0.975706
2472.000000	0.975714
2471.000000	0.975717
2470.000000	0.975714
2469.000000	0.975708
2468.000000	0.975698
2467.000000	0.975688
2466.000000	0.975687
2465.000000	0.975701
2464.000000	0.975720
2463.000000	0.975729
2462.000000	0.975725
2461.000000	0.975719
2460.000000	0.975716
2459.000000	0.975717
2458.000000	0.975720
2457.000000	0.975729
2456.000000	0.975745
2455.000000	0.975760
2454.000000	0.975772
2453.000000	0.975785
2452.000000	0.975799
2451.000000	0.975813
2450.000000	0.975826
2449.000000	0.975842
2448.000000	0.975858
2447.000000	0.975867
2446.000000	0.975871
2445.000000	0.975877
2444.000000	0.975887
2443.000000	0.975896
2442.000000	0.975903
2441.000000	0.975914
2440.000000	0.975929
2439.000000	0.975943
2438.000000	0.975955
2437.000000	0.975969
2436.000000	0.975984
2435.000000	0.975998
2434.000000	0.976014
2433.000000	0.976040
2432.000000	0.976079
2431.000000	0.976125
2430.000000	0.976173
2429.000000	0.976223
2428.000000	0.976271
2427.000000	0.976319
2426.000000	0.976373
2425.000000	0.976440
2424.000000	0.976512
2423.000000	0.976579
2422.000000	0.976637
2421.000000	0.976688
2420.000000	0.976726
2419.000000	0.976745
2418.000000	0.976753
2417.000000	0.976762
2416.000000	0.976775
2415.000000	0.976781
2414.000000	0.976778
2413.000000	0.976768
2412.000000	0.976750
2411.000000	0.976724
2410.000000	0.976694
2409.000000	0.976664
2408.000000	0.976633
2407.000000	0.976599
2406.000000	0.976571
2405.000000	0.976557
2404.000000	0.976549
2403.000000	0.976534
2402.000000	0.976515
2401.000000	0.976500
2400.000000	0.976492
2399.000000	0.976486
2398.000000	0.976478
2397.000000	0.976472
2396.000000	0.976464
2395.000000	0.976449
2394.000000	0.976436
2393.000000	0.976429
2392.000000	0.976416
2391.000000	0.976380
2390.000000	0.976320
2389.000000	0.976236
2388.000000	0.976115
2387.000000	0.975943
2386.000000	0.975725
2385.000000	0.975489
2384.000000	0.975268
2383.000000	0.975116
2382.000000	0.975111
2381.000000	0.975327
2380.000000	0.975770
2379.000000	0.976375
2378.000000	0.977034
2377.000000	0.977610
2376.000000	0.977962
2375.000000	0.978001
2374.000000	0.977749
2373.000000	0.977319
2372.000000	0.976829
2371.000000	0.976377
2370.000000	0.976063
2369.000000	0.975943
2368.000000	0.975969
2367.000000	0.976043
2366.000000	0.976120
2365.000000	0.976177
2364.000000	0.976167
2363.000000	0.976120
2362.000000	0.976147
2361.000000	0.976310
2360.000000	0.976542
2359.000000	0.976660
2358.000000	0.976667
2357.000000	0.976713
2356.000000	0.976831
2355.000000	0.976972
2354.000000	0.977043
2353.000000	0.976981
2352.000000	0.976609
2351.000000	0.975947
2350.000000	0.975494
2349.000000	0.975687
2348.000000	0.976530
2347.000000	0.977420
2346.000000	0.977698
2345.000000	0.977274
2344.000000	0.976608
2343.000000	0.976223
2342.000000	0.976161
2341.000000	0.976320
2340.000000	0.976560
2339.000000	0.976767
2338.000000	0.976934
2337.000000	0.977044
2336.000000	0.977077
2335.000000	0.977011
2334.000000	0.976901
2333.000000	0.976879
2332.000000	0.976989
2331.000000	0.977099
2330.000000	0.977089
2329.000000	0.976864
2328.000000	0.976567
2327.000000	0.976277
2326.000000	0.976066
2325.000000	0.975997
2324.000000	0.976048
2323.000000	0.976249
2322.000000	0.976500
2321.000000	0.976766
2320.000000	0.976937
2319.000000	0.976934
2318.000000	0.976764
2317.000000	0.976536
2316.000000	0.976414
2315.000000	0.976414
2314.000000	0.976488
2313.000000	0.976550
2312.000000	0.976596
2311.000000	0.976620
2310.000000	0.976628
2309.000000	0.976631
2308.000000	0.976648
2307.000000	0.976679
2306.000000	0.976693
2305.000000	0.976677
2304.000000	0.976630
2303.000000	0.976571
2302.000000	0.976516
2301.000000	0.976487
2300.000000	0.976500
2299.000000	0.976539
2298.000000	0.976586
2297.000000	0.976631
2296.000000	0.976693
2295.000000	0.976774
2294.000000	0.976860
2293.000000	0.976940
2292.000000	0.977013
2291.000000	0.977085
2290.000000	0.977150
2289.000000	0.977212
2288.000000	0.977270
2287.000000	0.977315
2286.000000	0.977334
2285.000000	0.977333
2284.000000	0.977329
2283.000000	0.977329
2282.000000	0.977327
2281.000000	0.977322
2280.000000	0.977322
2279.000000	0.977335
2278.000000	0.977354
2277.000000	0.977376
2276.000000	0.977401
2275.000000	0.977425
2274.000000	0.977450
2273.000000	0.977478
2272.000000	0.977516
2271.000000	0.977554
2270.000000	0.977579
2269.000000	0.977592
2268.000000	0.977604
2267.000000	0.977620
2266.000000	0.977632
2265.000000	0.977639
2264.000000	0.977651
2263.000000	0.977674
2262.000000	0.977699
2261.000000	0.977719
2260.000000	0.977729
2259.000000	0.977729
2258.000000	0.977725
2257.000000	0.977729
2256.000000	0.977752
2255.000000	0.977787
2254.000000	0.977819
2253.000000	0.977844
2252.000000	0.977867
2251.000000	0.977887
2250.000000	0.977897
2249.000000	0.977900
2248.000000	0.977906
2247.000000	0.977918
2246.000000	0.977934
2245.000000	0.977952
2244.000000	0.977972
2243.000000	0.977989
2242.000000	0.977999
2241.000000	0.978005
2240.000000	0.978020
2239.000000	0.978041
2238.000000	0.978058
2237.000000	0.978064
2236.000000	0.978067
2235.000000	0.978072
2234.000000	0.978083
2233.000000	0.978101
2232.000000	0.978123
2231.000000	0.978140
2230.000000	0.978147
2229.000000	0.978150
2228.000000	0.978158
2227.000000	0.978173
2226.000000	0.978188
2225.000000	0.978201
2224.000000	0.978210
2223.000000	0.978217
2222.000000	0.978223
2221.000000	0.978236
2220.000000	0.978262
2219.000000	0.978291
2218.000000	0.978309
2217.000000	0.978315
2216.000000	0.978320
2215.000000	0.978328
2214.000000	0.978336
2213.000000	0.978347
2212.000000	0.978365
2211.000000	0.978385
2210.000000	0.978397
2209.000000	0.978399
2208.000000	0.978399
2207.000000	0.978399
2206.000000	0.978398
2205.000000	0.978404
2204.000000	0.978426
2203.000000	0.978459
2202.000000	0.978485
2201.000000	0.978498
2200.000000	0.978503
2199.000000	0.978509
2198.000000	0.978515
2197.000000	0.978521
2196.000000	0.978526
2195.000000	0.978532
2194.000000	0.978537
2193.000000	0.978542
2192.000000	0.978547
2191.000000	0.978546
2190.000000	0.978539
2189.000000	0.978531
2188.000000	0.978530
2187.000000	0.978536
2186.000000	0.978544
2185.000000	0.978552
2184.000000	0.978563
2183.000000	0.978575
2182.000000	0.978583
2181.000000	0.978590
2180.000000	0.978597
2179.000000	0.978603
2178.000000	0.978602
2177.000000	0.978601
2176.000000	0.978610
2175.000000	0.978626
2174.000000	0.978642
2173.000000	0.978658
2172.000000	0.978679
2171.000000	0.978699
2170.000000	0.978711
2169.000000	0.978713
2168.000000	0.978712
2167.000000	0.978712
2166.000000	0.978712
2165.000000	0.978711
2164.000000	0.978716
2163.000000	0.978727
2162.000000	0.978740
2161.000000	0.978752
2160.000000	0.978761
2159.000000	0.978761
2158.000000	0.978753
2157.000000	0.978740
2156.000000	0.978730
2155.000000	0.978728
2154.000000	0.978736
2153.000000	0.978755
2152.000000	0.978780
2151.000000	0.978802
2150.000000	0.978815
2149.000000	0.978821
2148.000000	0.978826
2147.000000	0.978828
2146.000000	0.978825
2145.000000	0.978821
2144.000000	0.978822
2143.000000	0.978831
2142.000000	0.978844
2141.000000	0.978860
2140.000000	0.978875
2139.000000	0.978886
2138.000000	0.978894
2137.000000	0.978904
2136.000000	0.978921
2135.000000	0.978936
2134.000000	0.978943
2133.000000	0.978944
2132.000000	0.978947
2131.000000	0.978951
2130.000000	0.978955
2129.000000	0.978958
2128.000000	0.978962
2127.000000	0.978964
2126.000000	0.978968
2125.000000	0.978981
2124.000000	0.979006
2123.000000	0.979030
2122.000000	0.979041
2121.000000	0.979038
2120.000000	0.979028
2119.000000	0.979019
2118.000000	0.979017
2117.000000	0.979025
2116.000000	0.979042
2115.000000	0.979060
2114.000000	0.979074
2113.000000	0.979087
2112.000000	0.979098
2111.000000	0.979099
2110.000000	0.979093
2109.000000	0.979094
2108.000000	0.979109
2107.000000	0.979129
2106.000000	0.979142
2105.000000	0.979148
2104.000000	0.979150
2103.000000	0.979145
2102.000000	0.979136
2101.000000	0.979132
2100.000000	0.979136
2099.000000	0.979138
2098.000000	0.979135
2097.000000	0.979131
2096.000000	0.979130
2095.000000	0.979128
2094.000000	0.979123
2093.000000	0.979123
2092.000000	0.979134
2091.000000	0.979144
2090.000000	0.979146
2089.000000	0.979144
2088.000000	0.979150
2087.000000	0.979160
2086.000000	0.979168
2085.000000	0.979180
2084.000000	0.979200
2083.000000	0.979220
2082.000000	0.979225
2081.000000	0.979219
2080.000000	0.979214
2079.000000	0.979214
2078.000000	0.979212
2077.000000	0.979209
2076.000000	0.979209
2075.000000	0.979213
2074.000000	0.979213
2073.000000	0.979213
2072.000000	0.979215
2071.000000	0.979216
2070.000000	0.979212
2069.000000	0.979210
2068.000000	0.979215
2067.000000	0.979224
2066.000000	0.979235
2065.000000	0.979251
2064.000000	0.979271
2063.000000	0.979281
2062.000000	0.979276
2061.000000	0.979268
2060.000000	0.979270
2059.000000	0.979278
2058.000000	0.979279
2057.000000	0.979274
2056.000000	0.979275
2055.000000	0.979283
2054.000000	0.979294
2053.000000	0.979306
2052.000000	0.979322
2051.000000	0.979333
2050.000000	0.979330
2049.000000	0.979322
2048.000000	0.979319
2047.000000	0.979320
2046.000000	0.979317
2045.000000	0.979311
2044.000000	0.979311
2043.000000	0.979314
2042.000000	0.979316
2041.000000	0.979320
2040.000000	0.979333
2039.000000	0.979350
2038.000000	0.979361
2037.000000	0.979366
2036.000000	0.979370
2035.000000	0.979376
2034.000000	0.979383
2033.000000	0.979393
2032.000000	0.979406
2031.000000	0.979411
2030.000000	0.979401
2029.000000	0.979386
2028.000000	0.979378
2027.000000	0.979375
2026.000000	0.979373
2025.000000	0.979377
2024.000000	0.979396
2023.000000	0.979417
2022.000000	0.979424
2021.000000	0.979416
2020.000000	0.979407
2019.000000	0.979407
2018.000000	0.979413
2017.000000	0.979429
2016.000000	0.979449
2015.000000	0.979460
2014.000000	0.979450
2013.000000	0.979430
2012.000000	0.979417
2011.000000	0.979411
2010.000000	0.979404
2009.000000	0.979395
2008.000000	0.979391
2007.000000	0.979391
2006.000000	0.979382
2005.000000	0.979364
2004.000000	0.979346
2003.000000	0.979331
2002.000000	0.979320
2001.000000	0.979311
2000.000000	0.979310
1999.000000	0.979311
1998.000000	0.979304
1997.000000	0.979293
1996.000000	0.979290
1995.000000	0.979300
1994.000000	0.979322
1993.000000	0.979357
1992.000000	0.979405
1991.000000	0.979449
1990.000000	0.979461
1989.000000	0.979442
1988.000000	0.979419
1987.000000	0.979411
1986.000000	0.979413
1985.000000	0.979417
1984.000000	0.979423
1983.000000	0.979427
1982.000000	0.979423
1981.000000	0.979406
1980.000000	0.979392
1979.000000	0.979392
1978.000000	0.979401
1977.000000	0.979409
1976.000000	0.979415
1975.000000	0.979424
1974.000000	0.979434
1973.000000	0.979442
1972.000000	0.979444
1971.000000	0.979443
1970.000000	0.979439
1969.000000	0.979436
1968.000000	0.979441
1967.000000	0.979456
1966.000000	0.979479
1965.000000	0.979499
1964.000000	0.979513
1963.000000	0.979525
1962.000000	0.979538
1961.000000	0.979555
1960.000000	0.979570
1959.000000	0.979571
1958.000000	0.979557
1957.000000	0.979538
1956.000000	0.979529
1955.000000	0.979537
1954.000000	0.979556
1953.000000	0.979580
1952.000000	0.979604
1951.000000	0.979627
1950.000000	0.979644
1949.000000	0.979646
1948.000000	0.979636
1947.000000	0.979628
1946.000000	0.979644
1945.000000	0.979686
1944.000000	0.979739
1943.000000	0.979787
1942.000000	0.979826
1941.000000	0.979855
1940.000000	0.979860
1939.000000	0.979841
1938.000000	0.979811
1937.000000	0.979788
1936.000000	0.979779
1935.000000	0.979781
1934.000000	0.979793
1933.000000	0.979822
1932.000000	0.979852
1931.000000	0.979870
1930.000000	0.979879
1929.000000	0.979884
1928.000000	0.979898
1927.000000	0.979908
1926.000000	0.979919
1925.000000	0.979942
1924.000000	0.979963
1923.000000	0.979978
1922.000000	0.979988
1921.000000	0.980002
1920.000000	0.980018
1919.000000	0.980025
1918.000000	0.980031
1917.000000	0.980047
1916.000000	0.980057
1915.000000	0.980046
1914.000000	0.980029
1913.000000	0.980037
1912.000000	0.980067
1911.000000	0.980090
1910.000000	0.980096
1909.000000	0.980100
1908.000000	0.980122
1907.000000	0.980130
1906.000000	0.980121
1905.000000	0.980117
1904.000000	0.980127
1903.000000	0.980145
1902.000000	0.980155
1901.000000	0.980162
1900.000000	0.980179
1899.000000	0.980191
1898.000000	0.980190
1897.000000	0.980193
1896.000000	0.980208
1895.000000	0.980229
1894.000000	0.980245
1893.000000	0.980259
1892.000000	0.980279
1891.000000	0.980297
1890.000000	0.980313
1889.000000	0.980345
1888.000000	0.980377
1887.000000	0.980365
1886.000000	0.980310
1885.000000	0.980266
1884.000000	0.980262
1883.000000	0.980280
1882.000000	0.980288
1881.000000	0.980291
1880.000000	0.980313
1879.000000	0.980339
1878.000000	0.980342
1877.000000	0.980334
1876.000000	0.980327
1875.000000	0.980308
1874.000000	0.980269
1873.000000	0.980238
1872.000000	0.980253
1871.000000	0.980306
1870.000000	0.980360
1869.000000	0.980404
1868.000000	0.980450
1867.000000	0.980471
1866.000000	0.980434
1865.000000	0.980369
1864.000000	0.980322
1863.000000	0.980302
1862.000000	0.980299
1861.000000	0.980310
1860.000000	0.980339
1859.000000	0.980365
1858.000000	0.980371
1857.000000	0.980372
1856.000000	0.980385
1855.000000	0.980398
1854.000000	0.980393
1853.000000	0.980366
1852.000000	0.980353
1851.000000	0.980355
1850.000000	0.980336
1849.000000	0.980303
1848.000000	0.980294
1847.000000	0.980342
1846.000000	0.980424
1845.000000	0.980495
1844.000000	0.980527
1843.000000	0.980510
1842.000000	0.980456
1841.000000	0.980415
1840.000000	0.980415
1839.000000	0.980419
1838.000000	0.980421
1837.000000	0.980439
1836.000000	0.980469
1835.000000	0.980496
1834.000000	0.980513
1833.000000	0.980541
1832.000000	0.980602
1831.000000	0.980653
1830.000000	0.980667
1829.000000	0.980685
1828.000000	0.980709
1827.000000	0.980713
1826.000000	0.980696
1825.000000	0.980688
1824.000000	0.980701
1823.000000	0.980697
1822.000000	0.980651
1821.000000	0.980607
1820.000000	0.980614
1819.000000	0.980647
1818.000000	0.980669
1817.000000	0.980679
1816.000000	0.980700
1815.000000	0.980725
1814.000000	0.980708
1813.000000	0.980675
1812.000000	0.980676
1811.000000	0.980711
1810.000000	0.980750
1809.000000	0.980767
1808.000000	0.980778
1807.000000	0.980783
1806.000000	0.980769
1805.000000	0.980754
1804.000000	0.980773
1803.000000	0.980822
1802.000000	0.980844
1801.000000	0.980853
1800.000000	0.980880
1799.000000	0.980897
1798.000000	0.980861
1797.000000	0.980791
1796.000000	0.980755
1795.000000	0.980764
1794.000000	0.980757
1793.000000	0.980740
1792.000000	0.980784
1791.000000	0.980887
1790.000000	0.980962
1789.000000	0.980976
1788.000000	0.980969
1787.000000	0.980960
1786.000000	0.980951
1785.000000	0.980958
1784.000000	0.980999
1783.000000	0.981065
1782.000000	0.981077
1781.000000	0.981056
1780.000000	0.981067
1779.000000	0.981102
1778.000000	0.981101
1777.000000	0.981040
1776.000000	0.981020
1775.000000	0.981084
1774.000000	0.981127
1773.000000	0.981058
1772.000000	0.980993
1771.000000	0.981051
1770.000000	0.981179
1769.000000	0.981273
1768.000000	0.981294
1767.000000	0.981275
1766.000000	0.981252
1765.000000	0.981249
1764.000000	0.981282
1763.000000	0.981344
1762.000000	0.981403
1761.000000	0.981442
1760.000000	0.981441
1759.000000	0.981440
1758.000000	0.981445
1757.000000	0.981418
1756.000000	0.981385
1755.000000	0.981342
1754.000000	0.981257
1753.000000	0.981103
1752.000000	0.980933
1751.000000	0.980874
1750.000000	0.980996
1749.000000	0.981200
1748.000000	0.981403
1747.000000	0.981583
1746.000000	0.981672
1745.000000	0.981672
1744.000000	0.981647
1743.000000	0.981668
1742.000000	0.981736
1741.000000	0.981771
1740.000000	0.981718
1739.000000	0.981635
1738.000000	0.981582
1737.000000	0.981553
1736.000000	0.981474
1735.000000	0.981269
1734.000000	0.981086
1733.000000	0.981078
1732.000000	0.981175
1731.000000	0.981371
1730.000000	0.981648
1729.000000	0.981870
1728.000000	0.981988
1727.000000	0.982020
1726.000000	0.981991
1725.000000	0.981959
1724.000000	0.981929
1723.000000	0.981884
1722.000000	0.981835
1721.000000	0.981836
1720.000000	0.981928
1719.000000	0.981975
1718.000000	0.981855
1717.000000	0.981695
1716.000000	0.981635
1715.000000	0.981681
1714.000000	0.981806
1713.000000	0.981942
1712.000000	0.982024
1711.000000	0.982049
1710.000000	0.982023
1709.000000	0.981985
1708.000000	0.982013
1707.000000	0.982078
1706.000000	0.982098
1705.000000	0.982083
1704.000000	0.982093
1703.000000	0.982118
1702.000000	0.982033
1701.000000	0.981838
1700.000000	0.981780
1699.000000	0.981893
1698.000000	0.982060
1697.000000	0.982248
1696.000000	0.982347
1695.000000	0.982299
1694.000000	0.982123
1693.000000	0.982016
1692.000000	0.982098
1691.000000	0.982195
1690.000000	0.982176
1689.000000	0.982136
1688.000000	0.982268
1687.000000	0.982534
1686.000000	0.982700
1685.000000	0.982573
1684.000000	0.982368
1683.000000	0.982353
1682.000000	0.982374
1681.000000	0.982387
1680.000000	0.982417
1679.000000	0.982420
1678.000000	0.982428
1677.000000	0.982435
1676.000000	0.982400
1675.000000	0.982377
1674.000000	0.982399
1673.000000	0.982440
1672.000000	0.982456
1671.000000	0.982454
1670.000000	0.982507
1669.000000	0.982636
1668.000000	0.982728
1667.000000	0.982722
1666.000000	0.982710
1665.000000	0.982743
1664.000000	0.982753
1663.000000	0.982752
1662.000000	0.982788
1661.000000	0.982831
1660.000000	0.982831
1659.000000	0.982773
1658.000000	0.982706
1657.000000	0.982727
1656.000000	0.982903
1655.000000	0.983100
1654.000000	0.983125
1653.000000	0.983113
1652.000000	0.982990
1651.000000	0.982602
1650.000000	0.982462
1649.000000	0.982697
1648.000000	0.982904
1647.000000	0.982979
1646.000000	0.983066
1645.000000	0.983103
1644.000000	0.983020
1643.000000	0.982976
1642.000000	0.982999
1641.000000	0.983020
1640.000000	0.983018
1639.000000	0.983030
1638.000000	0.983098
1637.000000	0.983139
1636.000000	0.983172
1635.000000	0.983265
1634.000000	0.983315
1633.000000	0.983284
1632.000000	0.983274
1631.000000	0.983294
1630.000000	0.983309
1629.000000	0.983330
1628.000000	0.983352
1627.000000	0.983384
1626.000000	0.983425
1625.000000	0.983463
1624.000000	0.983456
1623.000000	0.983430
1622.000000	0.983440
1621.000000	0.983478
1620.000000	0.983530
1619.000000	0.983572
1618.000000	0.983554
1617.000000	0.983471
1616.000000	0.983383
1615.000000	0.983341
1614.000000	0.983417
1613.000000	0.983598
1612.000000	0.983709
1611.000000	0.983689
1610.000000	0.983649
1609.000000	0.983660
1608.000000	0.983654
1607.000000	0.983611
1606.000000	0.983585
1605.000000	0.983589
1604.000000	0.983571
1603.000000	0.983524
1602.000000	0.983527
1601.000000	0.983584
1600.000000	0.983617
1599.000000	0.983609
1598.000000	0.983621
1597.000000	0.983661
1596.000000	0.983666
1595.000000	0.983637
1594.000000	0.983649
1593.000000	0.983707
1592.000000	0.983733
1591.000000	0.983707
1590.000000	0.983698
1589.000000	0.983735
1588.000000	0.983757
1587.000000	0.983745
1586.000000	0.983757
1585.000000	0.983786
1584.000000	0.983793
1583.000000	0.983773
1582.000000	0.983776
1581.000000	0.983811
1580.000000	0.983858
1579.000000	0.983928
1578.000000	0.983997
1577.000000	0.983943
1576.000000	0.983738
1575.000000	0.983545
1574.000000	0.983503
1573.000000	0.983641
1572.000000	0.983805
1571.000000	0.983839
1570.000000	0.983842
1569.000000	0.983923
1568.000000	0.983993
1567.000000	0.983967
1566.000000	0.983936
1565.000000	0.983929
1564.000000	0.983923
1563.000000	0.983947
1562.000000	0.984023
1561.000000	0.984023
1560.000000	0.983785
1559.000000	0.983577
1558.000000	0.983832
1557.000000	0.983988
1556.000000	0.983837
1555.000000	0.983742
1554.000000	0.983727
1553.000000	0.983786
1552.000000	0.983856
1551.000000	0.983908
1550.000000	0.983983
1549.000000	0.984063
1548.000000	0.984068
1547.000000	0.983965
1546.000000	0.983834
1545.000000	0.983768
1544.000000	0.983777
1543.000000	0.983791
1542.000000	0.983792
1541.000000	0.983786
1540.000000	0.983850
1539.000000	0.983984
1538.000000	0.983996
1537.000000	0.984000
1536.000000	0.984158
1535.000000	0.984319
1534.000000	0.984374
1533.000000	0.984468
1532.000000	0.984606
1531.000000	0.984622
1530.000000	0.984535
1529.000000	0.984473
1528.000000	0.984490
1527.000000	0.984513
1526.000000	0.984476
1525.000000	0.984435
1524.000000	0.984419
1523.000000	0.984338
1522.000000	0.984184
1521.000000	0.984162
1520.000000	0.984330
1519.000000	0.984505
1518.000000	0.984610
1517.000000	0.984692
1516.000000	0.984797
1515.000000	0.984851
1514.000000	0.984751
1513.000000	0.984591
1512.000000	0.984492
1511.000000	0.984494
1510.000000	0.984523
1509.000000	0.984496
1508.000000	0.984353
1507.000000	0.984267
1506.000000	0.984430
1505.000000	0.984476
1504.000000	0.984397
1503.000000	0.984508
1502.000000	0.984736
1501.000000	0.984949
1500.000000	0.985162
1499.000000	0.985367
1498.000000	0.985432
1497.000000	0.985298
1496.000000	0.985050
1495.000000	0.984771
1494.000000	0.984474
1493.000000	0.984215
1492.000000	0.984042
1491.000000	0.983948
1490.000000	0.983943
1489.000000	0.984074
1488.000000	0.984267
1487.000000	0.984386
1486.000000	0.984405
1485.000000	0.984381
1484.000000	0.984376
1483.000000	0.984351
1482.000000	0.984299
1481.000000	0.984285
1480.000000	0.984324
1479.000000	0.984338
1478.000000	0.984287
1477.000000	0.984247
1476.000000	0.984255
1475.000000	0.984233
1474.000000	0.984094
1473.000000	0.983970
1472.000000	0.984031
1471.000000	0.984170
1470.000000	0.984225
1469.000000	0.984233
1468.000000	0.984246
1467.000000	0.984241
1466.000000	0.984179
1465.000000	0.984113
1464.000000	0.984116
1463.000000	0.984121
1462.000000	0.984071
1461.000000	0.984005
1460.000000	0.983984
1459.000000	0.983976
1458.000000	0.983903
1457.000000	0.983832
1456.000000	0.983827
1455.000000	0.983837
1454.000000	0.983911
1453.000000	0.984031
1452.000000	0.984070
1451.000000	0.984001
1450.000000	0.983865
1449.000000	0.983727
1448.000000	0.983665
1447.000000	0.983728
1446.000000	0.983809
1445.000000	0.983816
1444.000000	0.983772
1443.000000	0.983738
1442.000000	0.983708
1441.000000	0.983632
1440.000000	0.983539
1439.000000	0.983473
1438.000000	0.983424
1437.000000	0.983371
1436.000000	0.983369
1435.000000	0.983422
1434.000000	0.983467
1433.000000	0.983465
1432.000000	0.983439
1431.000000	0.983454
1430.000000	0.983510
1429.000000	0.983524
1428.000000	0.983467
1427.000000	0.983399
1426.000000	0.983323
1425.000000	0.983206
1424.000000	0.983111
1423.000000	0.983134
1422.000000	0.983224
1421.000000	0.983218
1420.000000	0.983111
1419.000000	0.983066
1418.000000	0.983121
1417.000000	0.983147
1416.000000	0.983120
1415.000000	0.983113
1414.000000	0.983126
1413.000000	0.983115
1412.000000	0.983096
1411.000000	0.983128
1410.000000	0.983197
1409.000000	0.983231
1408.000000	0.983207
1407.000000	0.983183
1406.000000	0.983167
1405.000000	0.983122
1404.000000	0.983044
1403.000000	0.982960
1402.000000	0.982876
1401.000000	0.982764
1400.000000	0.982645
1399.000000	0.982595
1398.000000	0.982622
1397.000000	0.982651
1396.000000	0.982652
1395.000000	0.982685
1394.000000	0.982747
1393.000000	0.982743
1392.000000	0.982656
1391.000000	0.982580
1390.000000	0.982567
1389.000000	0.982576
1388.000000	0.982570
1387.000000	0.982579
1386.000000	0.982615
1385.000000	0.982621
1384.000000	0.982554
1383.000000	0.982441
1382.000000	0.982349
1381.000000	0.982304
1380.000000	0.982286
1379.000000	0.982283
1378.000000	0.982293
1377.000000	0.982305
1376.000000	0.982298
1375.000000	0.982292
1374.000000	0.982329
1373.000000	0.982384
1372.000000	0.982372
1371.000000	0.982287
1370.000000	0.982202
1369.000000	0.982160
1368.000000	0.982145
1367.000000	0.982127
1366.000000	0.982110
1365.000000	0.982105
1364.000000	0.982111
1363.000000	0.982136
1362.000000	0.982184
1361.000000	0.982210
1360.000000	0.982165
1359.000000	0.982072
1358.000000	0.981993
1357.000000	0.981956
1356.000000	0.981938
1355.000000	0.981920
1354.000000	0.981905
1353.000000	0.981894
1352.000000	0.981866
1351.000000	0.981822
1350.000000	0.981791
1349.000000	0.981789
1348.000000	0.981791
1347.000000	0.981771
1346.000000	0.981736
1345.000000	0.981700
1344.000000	0.981666
1343.000000	0.981637
1342.000000	0.981623
1341.000000	0.981627
1340.000000	0.981645
1339.000000	0.981679
1338.000000	0.981714
1337.000000	0.981718
1336.000000	0.981678
1335.000000	0.981615
1334.000000	0.981559
1333.000000	0.981520
1332.000000	0.981487
1331.000000	0.981461
1330.000000	0.981449
1329.000000	0.981442
1328.000000	0.981420
1327.000000	0.981388
1326.000000	0.981360
1325.000000	0.981339
1324.000000	0.981317
1323.000000	0.981304
1322.000000	0.981311
1321.000000	0.981324
1320.000000	0.981317
1319.000000	0.981296
1318.000000	0.981282
1317.000000	0.981277
1316.000000	0.981267
1315.000000	0.981253
1314.000000	0.981253
1313.000000	0.981267
1312.000000	0.981276
1311.000000	0.981271
1310.000000	0.981254
1309.000000	0.981229
1308.000000	0.981195
1307.000000	0.981163
1306.000000	0.981146
1305.000000	0.981139
1304.000000	0.981127
1303.000000	0.981109
1302.000000	0.981096
1301.000000	0.981085
1300.000000	0.981072
1299.000000	0.981066
1298.000000	0.981069
1297.000000	0.981067
1296.000000	0.981047
1295.000000	0.981021
1294.000000	0.981009
1293.000000	0.981004
1292.000000	0.980988
1291.000000	0.980958
1290.000000	0.980931
1289.000000	0.980911
1288.000000	0.980894
1287.000000	0.980878
1286.000000	0.980864
1285.000000	0.980843
1284.000000	0.980812
1283.000000	0.980789
1282.000000	0.980788
1281.000000	0.980793
1280.000000	0.980776
1279.000000	0.980733
1278.000000	0.980688
1277.000000	0.980657
1276.000000	0.980640
1275.000000	0.980634
1274.000000	0.980639
1273.000000	0.980644
1272.000000	0.980639
1271.000000	0.980628
1270.000000	0.980624
1269.000000	0.980626
1268.000000	0.980625
1267.000000	0.980616
1266.000000	0.980594
1265.000000	0.980550
1264.000000	0.980482
1263.000000	0.980410
1262.000000	0.980361
1261.000000	0.980336
1260.000000	0.980324
1259.000000	0.980325
1258.000000	0.980341
1257.000000	0.980360
1256.000000	0.980371
1255.000000	0.980386
1254.000000	0.980419
1253.000000	0.980456
1252.000000	0.980471
1251.000000	0.980460
1250.000000	0.980435
1249.000000	0.980404
1248.000000	0.980373
1247.000000	0.980359
1246.000000	0.980376
1245.000000	0.980410
1244.000000	0.980430
1243.000000	0.980430
1242.000000	0.980421
1241.000000	0.980407
1240.000000	0.980382
1239.000000	0.980349
1238.000000	0.980317
1237.000000	0.980285
1236.000000	0.980251
1235.000000	0.980226
1234.000000	0.980218
1233.000000	0.980221
1232.000000	0.980223
1231.000000	0.980226
1230.000000	0.980235
1229.000000	0.980234
1228.000000	0.980207
1227.000000	0.980161
1226.000000	0.980126
1225.000000	0.980115
1224.000000	0.980118
1223.000000	0.980120
1222.000000	0.980114
1221.000000	0.980097
1220.000000	0.980075
1219.000000	0.980064
1218.000000	0.980070
1217.000000	0.980074
1216.000000	0.980053
1215.000000	0.980014
1214.000000	0.979979
1213.000000	0.979958
1212.000000	0.979943
1211.000000	0.979930
1210.000000	0.979915
1209.000000	0.979890
1208.000000	0.979854
1207.000000	0.979822
1206.000000	0.979807
1205.000000	0.979798
1204.000000	0.979781
1203.000000	0.979761
1202.000000	0.979752
1201.000000	0.979757
1200.000000	0.979763
1199.000000	0.979765
1198.000000	0.979761
1197.000000	0.979747
1196.000000	0.979717
1195.000000	0.979678
1194.000000	0.979633
1193.000000	0.979575
1192.000000	0.979501
1191.000000	0.979425
1190.000000	0.979364
1189.000000	0.979318
1188.000000	0.979287
1187.000000	0.979282
1186.000000	0.979308
1185.000000	0.979356
1184.000000	0.979413
1183.000000	0.979467
1182.000000	0.979485
1181.000000	0.979419
1180.000000	0.979265
1179.000000	0.979092
1178.000000	0.978976
1177.000000	0.978925
1176.000000	0.978908
1175.000000	0.978911
1174.000000	0.978940
1173.000000	0.978969
1172.000000	0.978957
1171.000000	0.978905
1170.000000	0.978857
1169.000000	0.978842
1168.000000	0.978850
1167.000000	0.978868
1166.000000	0.978893
1165.000000	0.978912
1164.000000	0.978899
1163.000000	0.978850
1162.000000	0.978786
1161.000000	0.978731
1160.000000	0.978693
1159.000000	0.978673
1158.000000	0.978665
1157.000000	0.978653
1156.000000	0.978626
1155.000000	0.978595
1154.000000	0.978582
1153.000000	0.978585
1152.000000	0.978583
1151.000000	0.978568
1150.000000	0.978554
1149.000000	0.978547
1148.000000	0.978542
1147.000000	0.978544
1146.000000	0.978564
1145.000000	0.978595
1144.000000	0.978610
1143.000000	0.978590
1142.000000	0.978536
1141.000000	0.978466
1140.000000	0.978405
1139.000000	0.978377
1138.000000	0.978385
1137.000000	0.978402
1136.000000	0.978399
1135.000000	0.978375
1134.000000	0.978346
1133.000000	0.978314
1132.000000	0.978274
1131.000000	0.978243
1130.000000	0.978248
1129.000000	0.978289
1128.000000	0.978336
1127.000000	0.978360
1126.000000	0.978346
1125.000000	0.978290
1124.000000	0.978208
1123.000000	0.978143
1122.000000	0.978124
1121.000000	0.978132
1120.000000	0.978128
1119.000000	0.978102
1118.000000	0.978072
1117.000000	0.978041
1116.000000	0.977988
1115.000000	0.977910
1114.000000	0.977829
1113.000000	0.977767
1112.000000	0.977720
1111.000000	0.977684
1110.000000	0.977653
1109.000000	0.977613
1108.000000	0.977550
1107.000000	0.977470
1106.000000	0.977399
1105.000000	0.977344
1104.000000	0.977295
1103.000000	0.977243
1102.000000	0.977187
1101.000000	0.977109
1100.000000	0.976997
1099.000000	0.976857
1098.000000	0.976716
1097.000000	0.976600
1096.000000	0.976518
1095.000000	0.976468
1094.000000	0.976429
1093.000000	0.976362
1092.000000	0.976236
1091.000000	0.976070
1090.000000	0.975909
1089.000000	0.975781
1088.000000	0.975686
1087.000000	0.975613
1086.000000	0.975545
1085.000000	0.975453
1084.000000	0.975314
1083.000000	0.975136
1082.000000	0.974947
1081.000000	0.974766
1080.000000	0.974606
1079.000000	0.974486
1078.000000	0.974401
1077.000000	0.974311
1076.000000	0.974172
1075.000000	0.973988
1074.000000	0.973803
1073.000000	0.973650
1072.000000	0.973533
1071.000000	0.973437
1070.000000	0.973336
1069.000000	0.973203
1068.000000	0.973043
1067.000000	0.972895
1066.000000	0.972773
1065.000000	0.972641
1064.000000	0.972471
1063.000000	0.972299
1062.000000	0.972172
1061.000000	0.972074
1060.000000	0.971944
1059.000000	0.971763
1058.000000	0.971565
1057.000000	0.971380
1056.000000	0.971217
1055.000000	0.971086
1054.000000	0.970997
1053.000000	0.970917
1052.000000	0.970790
1051.000000	0.970592
1050.000000	0.970347
1049.000000	0.970085
1048.000000	0.969837
1047.000000	0.969630
1046.000000	0.969469
1045.000000	0.969309
1044.000000	0.969102
1043.000000	0.968862
1042.000000	0.968648
1041.000000	0.968489
1040.000000	0.968363
1039.000000	0.968237
1038.000000	0.968081
1037.000000	0.967860
1036.000000	0.967554
1035.000000	0.967202
1034.000000	0.966882
1033.000000	0.966644
1032.000000	0.966481
1031.000000	0.966356
1030.000000	0.966226
1029.000000	0.966055
1028.000000	0.965845
1027.000000	0.965628
1026.000000	0.965428
1025.000000	0.965228
1024.000000	0.965010
1023.000000	0.964789
1022.000000	0.964574
1021.000000	0.964335
1020.000000	0.964043
1019.000000	0.963727
1018.000000	0.963438
1017.000000	0.963184
1016.000000	0.962948
1015.000000	0.962742
1014.000000	0.962577
1013.000000	0.962406
1012.000000	0.962158
1011.000000	0.961822
1010.000000	0.961465
1009.000000	0.961154
1008.000000	0.960902
1007.000000	0.960677
1006.000000	0.960430
1005.000000	0.960134
1004.000000	0.959818
1003.000000	0.959545
1002.000000	0.959330
1001.000000	0.959094
1000.000000	0.958781
