PE IR       SUBTECH     SPECTRUM    ASCII       PEDS        4.00        
   -1
TE110A_074_80K_AFTER_130K_2MIN.ASC
20/05/14
15:18:13.00
20/05/14
15:18:13.00
Administrator
TE110A.Thursday, May 14 2020, 005.
1000.000000
#HDR
-1
-1
#GR
cm-1
A
1.0
0.0
6000.000000
-2.000000
2501
8
1.398814
1.337522
#DATA
6000.000000	1.354100
5998.000000	1.354699
5996.000000	1.355072
5994.000000	1.355285
5992.000000	1.355097
5990.000000	1.354975
5988.000000	1.355213
5986.000000	1.355046
5984.000000	1.354748
5982.000000	1.354361
5980.000000	1.354490
5978.000000	1.354757
5976.000000	1.354916
5974.000000	1.354462
5972.000000	1.353983
5970.000000	1.353739
5968.000000	1.353859
5966.000000	1.354299
5964.000000	1.354617
5962.000000	1.354734
5960.000000	1.354672
5958.000000	1.354680
5956.000000	1.355132
5954.000000	1.355518
5952.000000	1.355319
5950.000000	1.354856
5948.000000	1.354414
5946.000000	1.354265
5944.000000	1.353964
5942.000000	1.353748
5940.000000	1.354111
5938.000000	1.354876
5936.000000	1.355290
5934.000000	1.354858
5932.000000	1.353898
5930.000000	1.353209
5928.000000	1.353477
5926.000000	1.354148
5924.000000	1.354552
5922.000000	1.354303
5920.000000	1.353622
5918.000000	1.353625
5916.000000	1.354020
5914.000000	1.354363
5912.000000	1.354283
5910.000000	1.353989
5908.000000	1.354189
5906.000000	1.354463
5904.000000	1.354422
5902.000000	1.354261
5900.000000	1.354192
5898.000000	1.354224
5896.000000	1.354145
5894.000000	1.354024
5892.000000	1.353863
5890.000000	1.353623
5888.000000	1.353656
5886.000000	1.353727
5884.000000	1.353504
5882.000000	1.353131
5880.000000	1.353117
5878.000000	1.353718
5876.000000	1.354232
5874.000000	1.354070
5872.000000	1.353294
5870.000000	1.352874
5868.000000	1.352778
5866.000000	1.353171
5864.000000	1.353498
5862.000000	1.353482
5860.000000	1.353231
5858.000000	1.353012
5856.000000	1.353324
5854.000000	1.353657
5852.000000	1.353794
5850.000000	1.353550
5848.000000	1.353278
5846.000000	1.353390
5844.000000	1.353507
5842.000000	1.353505
5840.000000	1.353224
5838.000000	1.352945
5836.000000	1.353289
5834.000000	1.353765
5832.000000	1.353839
5830.000000	1.353317
5828.000000	1.353083
5826.000000	1.353201
5824.000000	1.353282
5822.000000	1.353244
5820.000000	1.353147
5818.000000	1.353362
5816.000000	1.353497
5814.000000	1.353643
5812.000000	1.353834
5810.000000	1.354023
5808.000000	1.353894
5806.000000	1.353610
5804.000000	1.353437
5802.000000	1.353457
5800.000000	1.353387
5798.000000	1.353063
5796.000000	1.353000
5794.000000	1.353080
5792.000000	1.353329
5790.000000	1.353340
5788.000000	1.353478
5786.000000	1.353720
5784.000000	1.353779
5782.000000	1.353723
5780.000000	1.353382
5778.000000	1.353285
5776.000000	1.353324
5774.000000	1.353484
5772.000000	1.353558
5770.000000	1.353424
5768.000000	1.353373
5766.000000	1.353339
5764.000000	1.353322
5762.000000	1.353325
5760.000000	1.353133
5758.000000	1.353092
5756.000000	1.353037
5754.000000	1.352926
5752.000000	1.352903
5750.000000	1.353121
5748.000000	1.353646
5746.000000	1.353851
5744.000000	1.353682
5742.000000	1.353337
5740.000000	1.353023
5738.000000	1.352948
5736.000000	1.352939
5734.000000	1.352731
5732.000000	1.352407
5730.000000	1.352323
5728.000000	1.352863
5726.000000	1.353305
5724.000000	1.353337
5722.000000	1.353082
5720.000000	1.352907
5718.000000	1.352871
5716.000000	1.352885
5714.000000	1.352875
5712.000000	1.352771
5710.000000	1.352676
5708.000000	1.352814
5706.000000	1.352896
5704.000000	1.352781
5702.000000	1.352767
5700.000000	1.352809
5698.000000	1.352982
5696.000000	1.353020
5694.000000	1.353002
5692.000000	1.352964
5690.000000	1.352621
5688.000000	1.352564
5686.000000	1.352440
5684.000000	1.352301
5682.000000	1.352317
5680.000000	1.352629
5678.000000	1.353074
5676.000000	1.353318
5674.000000	1.353217
5672.000000	1.353071
5670.000000	1.352841
5668.000000	1.352835
5666.000000	1.353051
5664.000000	1.353192
5662.000000	1.353237
5660.000000	1.352965
5658.000000	1.352776
5656.000000	1.352727
5654.000000	1.352850
5652.000000	1.353056
5650.000000	1.352895
5648.000000	1.352546
5646.000000	1.352200
5644.000000	1.352475
5642.000000	1.352790
5640.000000	1.352975
5638.000000	1.352915
5636.000000	1.352843
5634.000000	1.352838
5632.000000	1.352690
5630.000000	1.352517
5628.000000	1.352427
5626.000000	1.352400
5624.000000	1.352664
5622.000000	1.352801
5620.000000	1.352703
5618.000000	1.352774
5616.000000	1.352904
5614.000000	1.352980
5612.000000	1.352781
5610.000000	1.352777
5608.000000	1.352987
5606.000000	1.353207
5604.000000	1.353094
5602.000000	1.352958
5600.000000	1.352720
5598.000000	1.352498
5596.000000	1.352644
5594.000000	1.353034
5592.000000	1.353308
5590.000000	1.353307
5588.000000	1.353076
5586.000000	1.352755
5584.000000	1.352376
5582.000000	1.352265
5580.000000	1.352368
5578.000000	1.352458
5576.000000	1.352461
5574.000000	1.352643
5572.000000	1.352760
5570.000000	1.352706
5568.000000	1.352411
5566.000000	1.352253
5564.000000	1.352311
5562.000000	1.352576
5560.000000	1.352711
5558.000000	1.352602
5556.000000	1.352375
5554.000000	1.352080
5552.000000	1.352008
5550.000000	1.352078
5548.000000	1.352228
5546.000000	1.352478
5544.000000	1.352539
5542.000000	1.352474
5540.000000	1.352184
5538.000000	1.352040
5536.000000	1.352290
5534.000000	1.352445
5532.000000	1.352578
5530.000000	1.352795
5528.000000	1.353084
5526.000000	1.353043
5524.000000	1.352584
5522.000000	1.352165
5520.000000	1.352002
5518.000000	1.351898
5516.000000	1.351982
5514.000000	1.352356
5512.000000	1.352603
5510.000000	1.352576
5508.000000	1.352474
5506.000000	1.352481
5504.000000	1.352511
5502.000000	1.352486
5500.000000	1.352634
5498.000000	1.352630
5496.000000	1.352238
5494.000000	1.352042
5492.000000	1.352105
5490.000000	1.352099
5488.000000	1.351879
5486.000000	1.351972
5484.000000	1.352416
5482.000000	1.352464
5480.000000	1.352014
5478.000000	1.351428
5476.000000	1.351367
5474.000000	1.351998
5472.000000	1.352576
5470.000000	1.352531
5468.000000	1.352096
5466.000000	1.351854
5464.000000	1.351944
5462.000000	1.351956
5460.000000	1.351918
5458.000000	1.352085
5456.000000	1.352240
5454.000000	1.351999
5452.000000	1.351547
5450.000000	1.351313
5448.000000	1.351686
5446.000000	1.351862
5444.000000	1.351694
5442.000000	1.351571
5440.000000	1.351741
5438.000000	1.351860
5436.000000	1.351884
5434.000000	1.351785
5432.000000	1.351678
5430.000000	1.351604
5428.000000	1.351947
5426.000000	1.352370
5424.000000	1.352494
5422.000000	1.352191
5420.000000	1.351857
5418.000000	1.351432
5416.000000	1.350937
5414.000000	1.350923
5412.000000	1.351306
5410.000000	1.351838
5408.000000	1.352126
5406.000000	1.352226
5404.000000	1.352228
5402.000000	1.352069
5400.000000	1.351826
5398.000000	1.351428
5396.000000	1.351018
5394.000000	1.351162
5392.000000	1.351680
5390.000000	1.351911
5388.000000	1.351725
5386.000000	1.351766
5384.000000	1.352146
5382.000000	1.352170
5380.000000	1.351570
5378.000000	1.351170
5376.000000	1.351401
5374.000000	1.351949
5372.000000	1.352112
5370.000000	1.351874
5368.000000	1.351633
5366.000000	1.351699
5364.000000	1.352075
5362.000000	1.352359
5360.000000	1.352294
5358.000000	1.351837
5356.000000	1.351308
5354.000000	1.351309
5352.000000	1.351748
5350.000000	1.351928
5348.000000	1.351330
5346.000000	1.350912
5344.000000	1.351168
5342.000000	1.351462
5340.000000	1.351357
5338.000000	1.351453
5336.000000	1.351849
5334.000000	1.351967
5332.000000	1.351687
5330.000000	1.351431
5328.000000	1.351556
5326.000000	1.351875
5324.000000	1.352147
5322.000000	1.352098
5320.000000	1.351843
5318.000000	1.351818
5316.000000	1.351880
5314.000000	1.351835
5312.000000	1.351529
5310.000000	1.351255
5308.000000	1.351363
5306.000000	1.351764
5304.000000	1.352054
5302.000000	1.352036
5300.000000	1.351801
5298.000000	1.351638
5296.000000	1.351530
5294.000000	1.351408
5292.000000	1.351208
5290.000000	1.351283
5288.000000	1.351780
5286.000000	1.352151
5284.000000	1.352082
5282.000000	1.351773
5280.000000	1.351678
5278.000000	1.351735
5276.000000	1.351787
5274.000000	1.351874
5272.000000	1.351932
5270.000000	1.351960
5268.000000	1.351823
5266.000000	1.351506
5264.000000	1.351401
5262.000000	1.351818
5260.000000	1.352197
5258.000000	1.351995
5256.000000	1.351687
5254.000000	1.351835
5252.000000	1.352074
5250.000000	1.351800
5248.000000	1.351282
5246.000000	1.351159
5244.000000	1.351571
5242.000000	1.351918
5240.000000	1.351877
5238.000000	1.351786
5236.000000	1.351970
5234.000000	1.352169
5232.000000	1.352312
5230.000000	1.352193
5228.000000	1.351725
5226.000000	1.351466
5224.000000	1.351630
5222.000000	1.351890
5220.000000	1.351862
5218.000000	1.351772
5216.000000	1.351791
5214.000000	1.351685
5212.000000	1.351521
5210.000000	1.351295
5208.000000	1.351275
5206.000000	1.351588
5204.000000	1.351907
5202.000000	1.352047
5200.000000	1.351892
5198.000000	1.351787
5196.000000	1.351934
5194.000000	1.352143
5192.000000	1.352068
5190.000000	1.351698
5188.000000	1.351445
5186.000000	1.351669
5184.000000	1.352080
5182.000000	1.352235
5180.000000	1.352167
5178.000000	1.352160
5176.000000	1.352344
5174.000000	1.352253
5172.000000	1.352062
5170.000000	1.352083
5168.000000	1.352111
5166.000000	1.351926
5164.000000	1.351803
5162.000000	1.352011
5160.000000	1.352157
5158.000000	1.352052
5156.000000	1.352144
5154.000000	1.352407
5152.000000	1.352591
5150.000000	1.352496
5148.000000	1.352365
5146.000000	1.352378
5144.000000	1.352383
5142.000000	1.352453
5140.000000	1.352437
5138.000000	1.352384
5136.000000	1.352338
5134.000000	1.352538
5132.000000	1.352716
5130.000000	1.352525
5128.000000	1.352219
5126.000000	1.352107
5124.000000	1.352199
5122.000000	1.352278
5120.000000	1.352331
5118.000000	1.352265
5116.000000	1.352177
5114.000000	1.352190
5112.000000	1.352237
5110.000000	1.352346
5108.000000	1.352484
5106.000000	1.352607
5104.000000	1.352514
5102.000000	1.352403
5100.000000	1.352375
5098.000000	1.352408
5096.000000	1.352444
5094.000000	1.352508
5092.000000	1.352533
5090.000000	1.352517
5088.000000	1.352533
5086.000000	1.352468
5084.000000	1.352351
5082.000000	1.352330
5080.000000	1.352641
5078.000000	1.352887
5076.000000	1.352838
5074.000000	1.352677
5072.000000	1.352560
5070.000000	1.352552
5068.000000	1.352508
5066.000000	1.352505
5064.000000	1.352635
5062.000000	1.352806
5060.000000	1.352775
5058.000000	1.352618
5056.000000	1.352584
5054.000000	1.352648
5052.000000	1.352682
5050.000000	1.352823
5048.000000	1.352926
5046.000000	1.352739
5044.000000	1.352462
5042.000000	1.352471
5040.000000	1.352850
5038.000000	1.353150
5036.000000	1.353179
5034.000000	1.353077
5032.000000	1.352965
5030.000000	1.352853
5028.000000	1.352946
5026.000000	1.353234
5024.000000	1.353323
5022.000000	1.353182
5020.000000	1.353162
5018.000000	1.353371
5016.000000	1.353471
5014.000000	1.353419
5012.000000	1.353270
5010.000000	1.353233
5008.000000	1.353282
5006.000000	1.353295
5004.000000	1.353140
5002.000000	1.353060
5000.000000	1.353097
4998.000000	1.353163
4996.000000	1.353231
4994.000000	1.353254
4992.000000	1.353209
4990.000000	1.353181
4988.000000	1.353289
4986.000000	1.353485
4984.000000	1.353572
4982.000000	1.353499
4980.000000	1.353326
4978.000000	1.353366
4976.000000	1.353522
4974.000000	1.353573
4972.000000	1.353414
4970.000000	1.353300
4968.000000	1.353307
4966.000000	1.353431
4964.000000	1.353510
4962.000000	1.353391
4960.000000	1.353206
4958.000000	1.353158
4956.000000	1.353365
4954.000000	1.353595
4952.000000	1.353631
4950.000000	1.353615
4948.000000	1.353708
4946.000000	1.353847
4944.000000	1.353755
4942.000000	1.353623
4940.000000	1.353653
4938.000000	1.353786
4936.000000	1.353867
4934.000000	1.353863
4932.000000	1.353843
4930.000000	1.353795
4928.000000	1.353776
4926.000000	1.353699
4924.000000	1.353637
4922.000000	1.353654
4920.000000	1.353712
4918.000000	1.353684
4916.000000	1.353686
4914.000000	1.353739
4912.000000	1.353708
4910.000000	1.353644
4908.000000	1.353636
4906.000000	1.353716
4904.000000	1.353899
4902.000000	1.354023
4900.000000	1.354040
4898.000000	1.353963
4896.000000	1.353845
4894.000000	1.353779
4892.000000	1.353791
4890.000000	1.353755
4888.000000	1.353642
4886.000000	1.353709
4884.000000	1.353877
4882.000000	1.353877
4880.000000	1.353869
4878.000000	1.353975
4876.000000	1.354109
4874.000000	1.354139
4872.000000	1.354123
4870.000000	1.354019
4868.000000	1.353951
4866.000000	1.354080
4864.000000	1.354320
4862.000000	1.354426
4860.000000	1.354340
4858.000000	1.354195
4856.000000	1.354137
4854.000000	1.354126
4852.000000	1.354196
4850.000000	1.354305
4848.000000	1.354417
4846.000000	1.354554
4844.000000	1.354586
4842.000000	1.354536
4840.000000	1.354611
4838.000000	1.354760
4836.000000	1.354693
4834.000000	1.354570
4832.000000	1.354563
4830.000000	1.354510
4828.000000	1.354346
4826.000000	1.354190
4824.000000	1.354175
4822.000000	1.354306
4820.000000	1.354476
4818.000000	1.354515
4816.000000	1.354372
4814.000000	1.354306
4812.000000	1.354422
4810.000000	1.354600
4808.000000	1.354581
4806.000000	1.354410
4804.000000	1.354194
4802.000000	1.354221
4800.000000	1.354374
4798.000000	1.354411
4796.000000	1.354409
4794.000000	1.354499
4792.000000	1.354495
4790.000000	1.354371
4788.000000	1.354384
4786.000000	1.354501
4784.000000	1.354664
4782.000000	1.354782
4780.000000	1.354720
4778.000000	1.354608
4776.000000	1.354672
4774.000000	1.354741
4772.000000	1.354638
4770.000000	1.354533
4768.000000	1.354591
4766.000000	1.354758
4764.000000	1.354845
4762.000000	1.354723
4760.000000	1.354583
4758.000000	1.354665
4756.000000	1.354810
4754.000000	1.354776
4752.000000	1.354672
4750.000000	1.354736
4748.000000	1.354845
4746.000000	1.354793
4744.000000	1.354681
4742.000000	1.354698
4740.000000	1.354791
4738.000000	1.354819
4736.000000	1.354723
4734.000000	1.354665
4732.000000	1.354696
4730.000000	1.354691
4728.000000	1.354532
4726.000000	1.354466
4724.000000	1.354634
4722.000000	1.354773
4720.000000	1.354799
4718.000000	1.354920
4716.000000	1.354965
4714.000000	1.354705
4712.000000	1.354522
4710.000000	1.354701
4708.000000	1.354924
4706.000000	1.354902
4704.000000	1.354783
4702.000000	1.354736
4700.000000	1.354796
4698.000000	1.354833
4696.000000	1.354882
4694.000000	1.354884
4692.000000	1.354875
4690.000000	1.354850
4688.000000	1.354851
4686.000000	1.354888
4684.000000	1.354905
4682.000000	1.354851
4680.000000	1.354854
4678.000000	1.354989
4676.000000	1.355101
4674.000000	1.355100
4672.000000	1.355007
4670.000000	1.354980
4668.000000	1.355064
4666.000000	1.355132
4664.000000	1.355170
4662.000000	1.355212
4660.000000	1.355136
4658.000000	1.355024
4656.000000	1.355045
4654.000000	1.355036
4652.000000	1.354968
4650.000000	1.355020
4648.000000	1.355151
4646.000000	1.355162
4644.000000	1.355101
4642.000000	1.355146
4640.000000	1.355207
4638.000000	1.355140
4636.000000	1.355064
4634.000000	1.355112
4632.000000	1.355107
4630.000000	1.354947
4628.000000	1.354919
4626.000000	1.355026
4624.000000	1.355103
4622.000000	1.355076
4620.000000	1.354982
4618.000000	1.354895
4616.000000	1.354943
4614.000000	1.355099
4612.000000	1.355198
4610.000000	1.355152
4608.000000	1.355033
4606.000000	1.355060
4604.000000	1.355127
4602.000000	1.355090
4600.000000	1.355062
4598.000000	1.355185
4596.000000	1.355282
4594.000000	1.355290
4592.000000	1.355329
4590.000000	1.355363
4588.000000	1.355382
4586.000000	1.355494
4584.000000	1.355483
4582.000000	1.355221
4580.000000	1.355161
4578.000000	1.355366
4576.000000	1.355419
4574.000000	1.355270
4572.000000	1.355196
4570.000000	1.355262
4568.000000	1.355272
4566.000000	1.355348
4564.000000	1.355584
4562.000000	1.355640
4560.000000	1.355376
4558.000000	1.355225
4556.000000	1.355353
4554.000000	1.355542
4552.000000	1.355590
4550.000000	1.355455
4548.000000	1.355305
4546.000000	1.355291
4544.000000	1.355201
4542.000000	1.355124
4540.000000	1.355383
4538.000000	1.355727
4536.000000	1.355753
4534.000000	1.355689
4532.000000	1.355640
4530.000000	1.355499
4528.000000	1.355419
4526.000000	1.355518
4524.000000	1.355598
4522.000000	1.355547
4520.000000	1.355495
4518.000000	1.355495
4516.000000	1.355476
4514.000000	1.355445
4512.000000	1.355394
4510.000000	1.355362
4508.000000	1.355441
4506.000000	1.355567
4504.000000	1.355588
4502.000000	1.355546
4500.000000	1.355518
4498.000000	1.355584
4496.000000	1.355668
4494.000000	1.355655
4492.000000	1.355513
4490.000000	1.355438
4488.000000	1.355456
4486.000000	1.355432
4484.000000	1.355484
4482.000000	1.355672
4480.000000	1.355792
4478.000000	1.355828
4476.000000	1.355853
4474.000000	1.355801
4472.000000	1.355866
4470.000000	1.356116
4468.000000	1.356180
4466.000000	1.356029
4464.000000	1.355992
4462.000000	1.356005
4460.000000	1.355946
4458.000000	1.355877
4456.000000	1.355818
4454.000000	1.355764
4452.000000	1.355735
4450.000000	1.355680
4448.000000	1.355706
4446.000000	1.355776
4444.000000	1.355797
4442.000000	1.355793
4440.000000	1.355798
4438.000000	1.355777
4436.000000	1.355755
4434.000000	1.355772
4432.000000	1.355800
4430.000000	1.355830
4428.000000	1.355827
4426.000000	1.355751
4424.000000	1.355627
4422.000000	1.355624
4420.000000	1.355764
4418.000000	1.355828
4416.000000	1.355746
4414.000000	1.355735
4412.000000	1.355807
4410.000000	1.355927
4408.000000	1.356083
4406.000000	1.356133
4404.000000	1.356056
4402.000000	1.355944
4400.000000	1.355788
4398.000000	1.355699
4396.000000	1.355723
4394.000000	1.355735
4392.000000	1.355749
4390.000000	1.355792
4388.000000	1.355841
4386.000000	1.355856
4384.000000	1.355847
4382.000000	1.355871
4380.000000	1.355929
4378.000000	1.355959
4376.000000	1.355943
4374.000000	1.355902
4372.000000	1.355841
4370.000000	1.355890
4368.000000	1.356066
4366.000000	1.356181
4364.000000	1.356167
4362.000000	1.356096
4360.000000	1.355976
4358.000000	1.355889
4356.000000	1.355843
4354.000000	1.355842
4352.000000	1.355845
4350.000000	1.355804
4348.000000	1.355827
4346.000000	1.355935
4344.000000	1.355981
4342.000000	1.355984
4340.000000	1.355979
4338.000000	1.355962
4336.000000	1.355941
4334.000000	1.355923
4332.000000	1.355902
4330.000000	1.355887
4328.000000	1.355853
4326.000000	1.355810
4324.000000	1.355821
4322.000000	1.355877
4320.000000	1.355869
4318.000000	1.355821
4316.000000	1.355794
4314.000000	1.355793
4312.000000	1.355791
4310.000000	1.355792
4308.000000	1.355802
4306.000000	1.355839
4304.000000	1.355876
4302.000000	1.355844
4300.000000	1.355761
4298.000000	1.355763
4296.000000	1.355918
4294.000000	1.356089
4292.000000	1.355966
4290.000000	1.355677
4288.000000	1.355665
4286.000000	1.355759
4284.000000	1.355732
4282.000000	1.355817
4280.000000	1.355904
4278.000000	1.355909
4276.000000	1.355971
4274.000000	1.355985
4272.000000	1.355887
4270.000000	1.355830
4268.000000	1.355841
4266.000000	1.355868
4264.000000	1.355830
4262.000000	1.355730
4260.000000	1.355639
4258.000000	1.355675
4256.000000	1.355782
4254.000000	1.355848
4252.000000	1.355883
4250.000000	1.355873
4248.000000	1.355691
4246.000000	1.355563
4244.000000	1.355615
4242.000000	1.355666
4240.000000	1.355630
4238.000000	1.355624
4236.000000	1.355627
4234.000000	1.355588
4232.000000	1.355555
4230.000000	1.355628
4228.000000	1.355701
4226.000000	1.355671
4224.000000	1.355573
4222.000000	1.355513
4220.000000	1.355566
4218.000000	1.355638
4216.000000	1.355571
4214.000000	1.355465
4212.000000	1.355408
4210.000000	1.355425
4208.000000	1.355498
4206.000000	1.355492
4204.000000	1.355413
4202.000000	1.355386
4200.000000	1.355366
4198.000000	1.355361
4196.000000	1.355389
4194.000000	1.355466
4192.000000	1.355521
4190.000000	1.355406
4188.000000	1.355254
4186.000000	1.355297
4184.000000	1.355429
4182.000000	1.355536
4180.000000	1.355607
4178.000000	1.355623
4176.000000	1.355534
4174.000000	1.355415
4172.000000	1.355431
4170.000000	1.355449
4168.000000	1.355345
4166.000000	1.355294
4164.000000	1.355286
4162.000000	1.355264
4160.000000	1.355314
4158.000000	1.355392
4156.000000	1.355318
4154.000000	1.355127
4152.000000	1.355044
4150.000000	1.355167
4148.000000	1.355260
4146.000000	1.355137
4144.000000	1.354971
4142.000000	1.354966
4140.000000	1.355032
4138.000000	1.355049
4136.000000	1.355001
4134.000000	1.355000
4132.000000	1.355035
4130.000000	1.354998
4128.000000	1.354927
4126.000000	1.354926
4124.000000	1.354950
4122.000000	1.354964
4120.000000	1.354929
4118.000000	1.354872
4116.000000	1.354886
4114.000000	1.354877
4112.000000	1.354743
4110.000000	1.354698
4108.000000	1.354757
4106.000000	1.354759
4104.000000	1.354689
4102.000000	1.354642
4100.000000	1.354620
4098.000000	1.354539
4096.000000	1.354519
4094.000000	1.354561
4092.000000	1.354463
4090.000000	1.354481
4088.000000	1.354722
4086.000000	1.354873
4084.000000	1.354767
4082.000000	1.354599
4080.000000	1.354540
4078.000000	1.354508
4076.000000	1.354497
4074.000000	1.354509
4072.000000	1.354481
4070.000000	1.354535
4068.000000	1.354627
4066.000000	1.354600
4064.000000	1.354440
4062.000000	1.354289
4060.000000	1.354192
4058.000000	1.354117
4056.000000	1.354072
4054.000000	1.354059
4052.000000	1.354086
4050.000000	1.354153
4048.000000	1.354118
4046.000000	1.354035
4044.000000	1.354116
4042.000000	1.354226
4040.000000	1.354165
4038.000000	1.354052
4036.000000	1.353948
4034.000000	1.353928
4032.000000	1.353988
4030.000000	1.353974
4028.000000	1.353839
4026.000000	1.353787
4024.000000	1.353798
4022.000000	1.353761
4020.000000	1.353772
4018.000000	1.353826
4016.000000	1.353826
4014.000000	1.353740
4012.000000	1.353551
4010.000000	1.353520
4008.000000	1.353718
4006.000000	1.353817
4004.000000	1.353742
4002.000000	1.353726
4000.000000	1.353653
3998.000000	1.353499
3996.000000	1.353486
3994.000000	1.353582
3992.000000	1.353596
3990.000000	1.353545
3988.000000	1.353457
3986.000000	1.353415
3984.000000	1.353447
3982.000000	1.353430
3980.000000	1.353288
3978.000000	1.353128
3976.000000	1.353106
3974.000000	1.353187
3972.000000	1.353208
3970.000000	1.353249
3968.000000	1.353265
3966.000000	1.353126
3964.000000	1.352898
3962.000000	1.352838
3960.000000	1.353006
3958.000000	1.353124
3956.000000	1.352989
3954.000000	1.352749
3952.000000	1.352476
3950.000000	1.352300
3948.000000	1.352445
3946.000000	1.352458
3944.000000	1.352144
3942.000000	1.352404
3940.000000	1.352948
3938.000000	1.352896
3936.000000	1.352305
3934.000000	1.351644
3932.000000	1.351755
3930.000000	1.352396
3928.000000	1.352312
3926.000000	1.351860
3924.000000	1.351894
3922.000000	1.351759
3920.000000	1.351046
3918.000000	1.351009
3916.000000	1.352076
3914.000000	1.352722
3912.000000	1.352459
3910.000000	1.352053
3908.000000	1.350798
3906.000000	1.348680
3904.000000	1.347931
3902.000000	1.349004
3900.000000	1.350639
3898.000000	1.352324
3896.000000	1.352430
3894.000000	1.350304
3892.000000	1.349330
3890.000000	1.350542
3888.000000	1.349730
3886.000000	1.348710
3884.000000	1.350305
3882.000000	1.350594
3880.000000	1.350695
3878.000000	1.351667
3876.000000	1.350538
3874.000000	1.348699
3872.000000	1.347051
3870.000000	1.347533
3868.000000	1.349896
3866.000000	1.349768
3864.000000	1.349586
3862.000000	1.351072
3860.000000	1.351160
3858.000000	1.347227
3856.000000	1.339676
3854.000000	1.339097
3852.000000	1.348713
3850.000000	1.354605
3848.000000	1.352889
3846.000000	1.350277
3844.000000	1.348953
3842.000000	1.347360
3840.000000	1.344589
3838.000000	1.345058
3836.000000	1.349224
3834.000000	1.350636
3832.000000	1.350075
3830.000000	1.350527
3828.000000	1.350372
3826.000000	1.349500
3824.000000	1.347238
3822.000000	1.345744
3820.000000	1.347265
3818.000000	1.346702
3816.000000	1.347150
3814.000000	1.351582
3812.000000	1.352015
3810.000000	1.348200
3808.000000	1.346230
3806.000000	1.347660
3804.000000	1.346606
3802.000000	1.345060
3800.000000	1.348949
3798.000000	1.351118
3796.000000	1.350283
3794.000000	1.350701
3792.000000	1.350731
3790.000000	1.350306
3788.000000	1.350080
3786.000000	1.349870
3784.000000	1.349768
3782.000000	1.349184
3780.000000	1.348889
3778.000000	1.349950
3776.000000	1.350563
3774.000000	1.349576
3772.000000	1.347894
3770.000000	1.347661
3768.000000	1.348780
3766.000000	1.349309
3764.000000	1.349463
3762.000000	1.348639
3760.000000	1.347765
3758.000000	1.348311
3756.000000	1.346963
3754.000000	1.342096
3752.000000	1.339632
3750.000000	1.343209
3748.000000	1.344800
3746.000000	1.340914
3744.000000	1.343700
3742.000000	1.350573
3740.000000	1.348641
3738.000000	1.343757
3736.000000	1.343400
3734.000000	1.345469
3732.000000	1.347680
3730.000000	1.349096
3728.000000	1.347982
3726.000000	1.347051
3724.000000	1.347570
3722.000000	1.347875
3720.000000	1.348208
3718.000000	1.348266
3716.000000	1.346753
3714.000000	1.343806
3712.000000	1.343672
3710.000000	1.346927
3708.000000	1.348888
3706.000000	1.348398
3704.000000	1.346969
3702.000000	1.346747
3700.000000	1.348007
3698.000000	1.348332
3696.000000	1.347532
3694.000000	1.345917
3692.000000	1.342894
3690.000000	1.341049
3688.000000	1.344462
3686.000000	1.348889
3684.000000	1.348625
3682.000000	1.346603
3680.000000	1.344235
3678.000000	1.340288
3676.000000	1.339785
3674.000000	1.343357
3672.000000	1.342800
3670.000000	1.342917
3668.000000	1.346966
3666.000000	1.347804
3664.000000	1.346449
3662.000000	1.345816
3660.000000	1.344738
3658.000000	1.343011
3656.000000	1.343493
3654.000000	1.343852
3652.000000	1.340043
3650.000000	1.338279
3648.000000	1.342395
3646.000000	1.346075
3644.000000	1.346046
3642.000000	1.345056
3640.000000	1.344743
3638.000000	1.344490
3636.000000	1.343851
3634.000000	1.342805
3632.000000	1.339842
3630.000000	1.337522
3628.000000	1.341484
3626.000000	1.345575
3624.000000	1.344200
3622.000000	1.341307
3620.000000	1.340383
3618.000000	1.341929
3616.000000	1.342484
3614.000000	1.341403
3612.000000	1.340817
3610.000000	1.340708
3608.000000	1.341854
3606.000000	1.343227
3604.000000	1.342875
3602.000000	1.342071
3600.000000	1.341905
3598.000000	1.341724
3596.000000	1.341492
3594.000000	1.341853
3592.000000	1.341559
3590.000000	1.339895
3588.000000	1.339607
3586.000000	1.341492
3584.000000	1.342430
3582.000000	1.341973
3580.000000	1.341629
3578.000000	1.341556
3576.000000	1.341523
3574.000000	1.341443
3572.000000	1.340905
3570.000000	1.339504
3568.000000	1.338853
3566.000000	1.340308
3564.000000	1.341571
3562.000000	1.341431
3560.000000	1.341228
3558.000000	1.341324
3556.000000	1.341156
3554.000000	1.340861
3552.000000	1.340952
3550.000000	1.340990
3548.000000	1.340544
3546.000000	1.340599
3544.000000	1.341395
3542.000000	1.341863
3540.000000	1.341653
3538.000000	1.341377
3536.000000	1.341475
3534.000000	1.341670
3532.000000	1.341552
3530.000000	1.341395
3528.000000	1.341489
3526.000000	1.341644
3524.000000	1.341753
3522.000000	1.342042
3520.000000	1.342312
3518.000000	1.342434
3516.000000	1.342596
3514.000000	1.342629
3512.000000	1.342492
3510.000000	1.342577
3508.000000	1.342897
3506.000000	1.342915
3504.000000	1.342863
3502.000000	1.343324
3500.000000	1.343757
3498.000000	1.343767
3496.000000	1.343835
3494.000000	1.344240
3492.000000	1.344568
3490.000000	1.344680
3488.000000	1.344903
3486.000000	1.345246
3484.000000	1.345490
3482.000000	1.345730
3480.000000	1.346109
3478.000000	1.346513
3476.000000	1.346818
3474.000000	1.347134
3472.000000	1.347397
3470.000000	1.347660
3468.000000	1.348011
3466.000000	1.348393
3464.000000	1.348767
3462.000000	1.349247
3460.000000	1.349869
3458.000000	1.350333
3456.000000	1.350611
3454.000000	1.350935
3452.000000	1.351348
3450.000000	1.351674
3448.000000	1.352059
3446.000000	1.352707
3444.000000	1.353311
3442.000000	1.353936
3440.000000	1.354499
3438.000000	1.354795
3436.000000	1.355198
3434.000000	1.355813
3432.000000	1.356418
3430.000000	1.356957
3428.000000	1.357474
3426.000000	1.357930
3424.000000	1.358230
3422.000000	1.358560
3420.000000	1.359035
3418.000000	1.359476
3416.000000	1.359841
3414.000000	1.360217
3412.000000	1.360518
3410.000000	1.360720
3408.000000	1.360931
3406.000000	1.361246
3404.000000	1.361553
3402.000000	1.361727
3400.000000	1.361894
3398.000000	1.362190
3396.000000	1.362502
3394.000000	1.362610
3392.000000	1.362723
3390.000000	1.363009
3388.000000	1.363250
3386.000000	1.363453
3384.000000	1.363657
3382.000000	1.363845
3380.000000	1.364018
3378.000000	1.364123
3376.000000	1.364311
3374.000000	1.364534
3372.000000	1.364479
3370.000000	1.364372
3368.000000	1.364593
3366.000000	1.364916
3364.000000	1.365027
3362.000000	1.365095
3360.000000	1.365300
3358.000000	1.365450
3356.000000	1.365464
3354.000000	1.365516
3352.000000	1.365583
3350.000000	1.365664
3348.000000	1.365800
3346.000000	1.365912
3344.000000	1.365933
3342.000000	1.365933
3340.000000	1.365987
3338.000000	1.366055
3336.000000	1.366205
3334.000000	1.366355
3332.000000	1.366439
3330.000000	1.366502
3328.000000	1.366508
3326.000000	1.366519
3324.000000	1.366611
3322.000000	1.366731
3320.000000	1.366919
3318.000000	1.367092
3316.000000	1.367094
3314.000000	1.367064
3312.000000	1.367051
3310.000000	1.367049
3308.000000	1.367157
3306.000000	1.367231
3304.000000	1.367228
3302.000000	1.367340
3300.000000	1.367516
3298.000000	1.367568
3296.000000	1.367549
3294.000000	1.367586
3292.000000	1.367690
3290.000000	1.367823
3288.000000	1.367853
3286.000000	1.367861
3284.000000	1.367942
3282.000000	1.368055
3280.000000	1.368119
3278.000000	1.368116
3276.000000	1.368144
3274.000000	1.368207
3272.000000	1.368265
3270.000000	1.368325
3268.000000	1.368405
3266.000000	1.368573
3264.000000	1.368690
3262.000000	1.368676
3260.000000	1.368705
3258.000000	1.368838
3256.000000	1.368865
3254.000000	1.368905
3252.000000	1.369057
3250.000000	1.369151
3248.000000	1.369195
3246.000000	1.369244
3244.000000	1.369293
3242.000000	1.369388
3240.000000	1.369460
3238.000000	1.369490
3236.000000	1.369620
3234.000000	1.369748
3232.000000	1.369814
3230.000000	1.369947
3228.000000	1.370076
3226.000000	1.370204
3224.000000	1.370280
3222.000000	1.370276
3220.000000	1.370352
3218.000000	1.370430
3216.000000	1.370427
3214.000000	1.370487
3212.000000	1.370508
3210.000000	1.370513
3208.000000	1.370591
3206.000000	1.370677
3204.000000	1.370740
3202.000000	1.370840
3200.000000	1.370897
3198.000000	1.370897
3196.000000	1.370957
3194.000000	1.371011
3192.000000	1.371092
3190.000000	1.371134
3188.000000	1.371075
3186.000000	1.371046
3184.000000	1.371132
3182.000000	1.371202
3180.000000	1.371220
3178.000000	1.371311
3176.000000	1.371482
3174.000000	1.371508
3172.000000	1.371390
3170.000000	1.371416
3168.000000	1.371535
3166.000000	1.371520
3164.000000	1.371536
3162.000000	1.371655
3160.000000	1.371731
3158.000000	1.371810
3156.000000	1.371825
3154.000000	1.371754
3152.000000	1.371768
3150.000000	1.371941
3148.000000	1.372036
3146.000000	1.372076
3144.000000	1.372123
3142.000000	1.372115
3140.000000	1.372177
3138.000000	1.372333
3136.000000	1.372480
3134.000000	1.372554
3132.000000	1.372558
3130.000000	1.372625
3128.000000	1.372695
3126.000000	1.372738
3124.000000	1.372757
3122.000000	1.372787
3120.000000	1.372823
3118.000000	1.372806
3116.000000	1.372853
3114.000000	1.372958
3112.000000	1.373010
3110.000000	1.372932
3108.000000	1.372952
3106.000000	1.373154
3104.000000	1.373269
3102.000000	1.373193
3100.000000	1.373092
3098.000000	1.373051
3096.000000	1.373027
3094.000000	1.373075
3092.000000	1.373041
3090.000000	1.372902
3088.000000	1.372829
3086.000000	1.372754
3084.000000	1.372642
3082.000000	1.372487
3080.000000	1.372387
3078.000000	1.372412
3076.000000	1.372429
3074.000000	1.372416
3072.000000	1.372336
3070.000000	1.372136
3068.000000	1.371975
3066.000000	1.371937
3064.000000	1.371975
3062.000000	1.372023
3060.000000	1.371999
3058.000000	1.371913
3056.000000	1.371840
3054.000000	1.371836
3052.000000	1.371776
3050.000000	1.371576
3048.000000	1.371524
3046.000000	1.371556
3044.000000	1.371474
3042.000000	1.371366
3040.000000	1.371388
3038.000000	1.371448
3036.000000	1.371396
3034.000000	1.371236
3032.000000	1.371108
3030.000000	1.371104
3028.000000	1.371031
3026.000000	1.370816
3024.000000	1.370581
3022.000000	1.370541
3020.000000	1.370752
3018.000000	1.371040
3016.000000	1.371367
3014.000000	1.371616
3012.000000	1.371630
3010.000000	1.371553
3008.000000	1.371417
3006.000000	1.371238
3004.000000	1.371095
3002.000000	1.370982
3000.000000	1.370847
2998.000000	1.370712
2996.000000	1.370621
2994.000000	1.370567
2992.000000	1.370443
2990.000000	1.370316
2988.000000	1.370343
2986.000000	1.370387
2984.000000	1.370277
2982.000000	1.370210
2980.000000	1.370212
2978.000000	1.370115
2976.000000	1.369998
2974.000000	1.369932
2972.000000	1.369940
2970.000000	1.369965
2968.000000	1.370094
2966.000000	1.370619
2964.000000	1.371447
2962.000000	1.372201
2960.000000	1.372720
2958.000000	1.372864
2956.000000	1.372558
2954.000000	1.372014
2952.000000	1.371388
2950.000000	1.370793
2948.000000	1.370242
2946.000000	1.369682
2944.000000	1.369117
2942.000000	1.368696
2940.000000	1.368436
2938.000000	1.368361
2936.000000	1.368572
2934.000000	1.368770
2932.000000	1.368730
2930.000000	1.368757
2928.000000	1.369074
2926.000000	1.369707
2924.000000	1.370660
2922.000000	1.371677
2920.000000	1.372398
2918.000000	1.372733
2916.000000	1.372690
2914.000000	1.372360
2912.000000	1.371928
2910.000000	1.371460
2908.000000	1.371081
2906.000000	1.370857
2904.000000	1.370689
2902.000000	1.370508
2900.000000	1.370350
2898.000000	1.370242
2896.000000	1.370131
2894.000000	1.369993
2892.000000	1.369881
2890.000000	1.369859
2888.000000	1.369858
2886.000000	1.369735
2884.000000	1.369498
2882.000000	1.369237
2880.000000	1.369040
2878.000000	1.368883
2876.000000	1.368666
2874.000000	1.368387
2872.000000	1.368102
2870.000000	1.367735
2868.000000	1.367294
2866.000000	1.367050
2864.000000	1.367182
2862.000000	1.367803
2860.000000	1.368736
2858.000000	1.369542
2856.000000	1.369928
2854.000000	1.369969
2852.000000	1.370045
2850.000000	1.370378
2848.000000	1.370675
2846.000000	1.370662
2844.000000	1.370402
2842.000000	1.369999
2840.000000	1.369657
2838.000000	1.369438
2836.000000	1.369281
2834.000000	1.369099
2832.000000	1.368964
2830.000000	1.368994
2828.000000	1.369020
2826.000000	1.368879
2824.000000	1.368779
2822.000000	1.368763
2820.000000	1.368689
2818.000000	1.368634
2816.000000	1.368639
2814.000000	1.368590
2812.000000	1.368515
2810.000000	1.368502
2808.000000	1.368542
2806.000000	1.368534
2804.000000	1.368531
2802.000000	1.368475
2800.000000	1.368377
2798.000000	1.368328
2796.000000	1.368349
2794.000000	1.368331
2792.000000	1.368255
2790.000000	1.368251
2788.000000	1.368301
2786.000000	1.368338
2784.000000	1.368339
2782.000000	1.368359
2780.000000	1.368355
2778.000000	1.368280
2776.000000	1.368186
2774.000000	1.368120
2772.000000	1.368145
2770.000000	1.368175
2768.000000	1.368163
2766.000000	1.368096
2764.000000	1.368085
2762.000000	1.368122
2760.000000	1.368141
2758.000000	1.368170
2756.000000	1.368198
2754.000000	1.368188
2752.000000	1.368188
2750.000000	1.368240
2748.000000	1.368268
2746.000000	1.368271
2744.000000	1.368281
2742.000000	1.368209
2740.000000	1.368192
2738.000000	1.368171
2736.000000	1.368208
2734.000000	1.368291
2732.000000	1.368297
2730.000000	1.368331
2728.000000	1.368335
2726.000000	1.368292
2724.000000	1.368354
2722.000000	1.368468
2720.000000	1.368502
2718.000000	1.368535
2716.000000	1.368596
2714.000000	1.368668
2712.000000	1.368721
2710.000000	1.368746
2708.000000	1.368792
2706.000000	1.368857
2704.000000	1.368920
2702.000000	1.369000
2700.000000	1.369156
2698.000000	1.369269
2696.000000	1.369281
2694.000000	1.369378
2692.000000	1.369483
2690.000000	1.369518
2688.000000	1.369592
2686.000000	1.369663
2684.000000	1.369757
2682.000000	1.369870
2680.000000	1.369983
2678.000000	1.370026
2676.000000	1.370062
2674.000000	1.370145
2672.000000	1.370263
2670.000000	1.370348
2668.000000	1.370417
2666.000000	1.370517
2664.000000	1.370662
2662.000000	1.370756
2660.000000	1.370856
2658.000000	1.370936
2656.000000	1.370964
2654.000000	1.371077
2652.000000	1.371198
2650.000000	1.371248
2648.000000	1.371253
2646.000000	1.371316
2644.000000	1.371429
2642.000000	1.371467
2640.000000	1.371561
2638.000000	1.371670
2636.000000	1.371727
2634.000000	1.371669
2632.000000	1.371617
2630.000000	1.371669
2628.000000	1.371691
2626.000000	1.371679
2624.000000	1.371737
2622.000000	1.371746
2620.000000	1.371750
2618.000000	1.371847
2616.000000	1.371939
2614.000000	1.371924
2612.000000	1.371887
2610.000000	1.371815
2608.000000	1.371826
2606.000000	1.371877
2604.000000	1.371897
2602.000000	1.371987
2600.000000	1.372070
2598.000000	1.372046
2596.000000	1.372017
2594.000000	1.372085
2592.000000	1.372262
2590.000000	1.372328
2588.000000	1.372313
2586.000000	1.372310
2584.000000	1.372318
2582.000000	1.372321
2580.000000	1.372362
2578.000000	1.372441
2576.000000	1.372446
2574.000000	1.372406
2572.000000	1.372417
2570.000000	1.372454
2568.000000	1.372517
2566.000000	1.372566
2564.000000	1.372559
2562.000000	1.372540
2560.000000	1.372540
2558.000000	1.372556
2556.000000	1.372590
2554.000000	1.372572
2552.000000	1.372491
2550.000000	1.372494
2548.000000	1.372637
2546.000000	1.372677
2544.000000	1.372619
2542.000000	1.372631
2540.000000	1.372661
2538.000000	1.372627
2536.000000	1.372592
2534.000000	1.372581
2532.000000	1.372546
2530.000000	1.372499
2528.000000	1.372493
2526.000000	1.372496
2524.000000	1.372562
2522.000000	1.372577
2520.000000	1.372615
2518.000000	1.372643
2516.000000	1.372583
2514.000000	1.372543
2512.000000	1.372612
2510.000000	1.372714
2508.000000	1.372742
2506.000000	1.372665
2504.000000	1.372587
2502.000000	1.372580
2500.000000	1.372608
2498.000000	1.372568
2496.000000	1.372584
2494.000000	1.372555
2492.000000	1.372502
2490.000000	1.372482
2488.000000	1.372516
2486.000000	1.372568
2484.000000	1.372544
2482.000000	1.372530
2480.000000	1.372601
2478.000000	1.372665
2476.000000	1.372674
2474.000000	1.372587
2472.000000	1.372538
2470.000000	1.372491
2468.000000	1.372453
2466.000000	1.372499
2464.000000	1.372602
2462.000000	1.372653
2460.000000	1.372632
2458.000000	1.372597
2456.000000	1.372617
2454.000000	1.372655
2452.000000	1.372612
2450.000000	1.372562
2448.000000	1.372586
2446.000000	1.372602
2444.000000	1.372584
2442.000000	1.372548
2440.000000	1.372558
2438.000000	1.372629
2436.000000	1.372716
2434.000000	1.372684
2432.000000	1.372590
2430.000000	1.372585
2428.000000	1.372575
2426.000000	1.372569
2424.000000	1.372639
2422.000000	1.372671
2420.000000	1.372692
2418.000000	1.372682
2416.000000	1.372675
2414.000000	1.372667
2412.000000	1.372636
2410.000000	1.372669
2408.000000	1.372743
2406.000000	1.372681
2404.000000	1.372594
2402.000000	1.372573
2400.000000	1.372562
2398.000000	1.372491
2396.000000	1.372422
2394.000000	1.372479
2392.000000	1.372570
2390.000000	1.372642
2388.000000	1.372616
2386.000000	1.372497
2384.000000	1.372446
2382.000000	1.372323
2380.000000	1.372041
2378.000000	1.371699
2376.000000	1.371345
2374.000000	1.371011
2372.000000	1.370604
2370.000000	1.370216
2368.000000	1.370005
2366.000000	1.369962
2364.000000	1.370006
2362.000000	1.370135
2360.000000	1.370354
2358.000000	1.370708
2356.000000	1.371194
2354.000000	1.371703
2352.000000	1.372175
2350.000000	1.372048
2348.000000	1.371287
2346.000000	1.370683
2344.000000	1.370677
2342.000000	1.371211
2340.000000	1.371978
2338.000000	1.372390
2336.000000	1.372232
2334.000000	1.371742
2332.000000	1.371495
2330.000000	1.371566
2328.000000	1.371622
2326.000000	1.371701
2324.000000	1.371834
2322.000000	1.371928
2320.000000	1.372025
2318.000000	1.372103
2316.000000	1.372168
2314.000000	1.372284
2312.000000	1.372457
2310.000000	1.372518
2308.000000	1.372540
2306.000000	1.372525
2304.000000	1.372527
2302.000000	1.372565
2300.000000	1.372561
2298.000000	1.372533
2296.000000	1.372516
2294.000000	1.372570
2292.000000	1.372670
2290.000000	1.372690
2288.000000	1.372749
2286.000000	1.372764
2284.000000	1.372744
2282.000000	1.372790
2280.000000	1.372809
2278.000000	1.372759
2276.000000	1.372773
2274.000000	1.372820
2272.000000	1.372832
2270.000000	1.372785
2268.000000	1.372742
2266.000000	1.372726
2264.000000	1.372630
2262.000000	1.372488
2260.000000	1.372512
2258.000000	1.372547
2256.000000	1.372539
2254.000000	1.372459
2252.000000	1.372441
2250.000000	1.372416
2248.000000	1.372390
2246.000000	1.372357
2244.000000	1.372241
2242.000000	1.372229
2240.000000	1.372335
2238.000000	1.372313
2236.000000	1.372187
2234.000000	1.372067
2232.000000	1.372052
2230.000000	1.372013
2228.000000	1.371974
2226.000000	1.372036
2224.000000	1.371996
2222.000000	1.371828
2220.000000	1.371770
2218.000000	1.371772
2216.000000	1.371710
2214.000000	1.371605
2212.000000	1.371625
2210.000000	1.371575
2208.000000	1.371444
2206.000000	1.371408
2204.000000	1.371406
2202.000000	1.371372
2200.000000	1.371368
2198.000000	1.371288
2196.000000	1.371202
2194.000000	1.371194
2192.000000	1.371208
2190.000000	1.371123
2188.000000	1.371131
2186.000000	1.371143
2184.000000	1.371116
2182.000000	1.371055
2180.000000	1.371007
2178.000000	1.370993
2176.000000	1.370940
2174.000000	1.370834
2172.000000	1.370731
2170.000000	1.370600
2168.000000	1.370667
2166.000000	1.370648
2164.000000	1.370628
2162.000000	1.370465
2160.000000	1.370265
2158.000000	1.370305
2156.000000	1.370456
2154.000000	1.370491
2152.000000	1.370452
2150.000000	1.370396
2148.000000	1.370378
2146.000000	1.370226
2144.000000	1.370124
2142.000000	1.370096
2140.000000	1.370015
2138.000000	1.369868
2136.000000	1.369821
2134.000000	1.369881
2132.000000	1.369950
2130.000000	1.369999
2128.000000	1.369851
2126.000000	1.369651
2124.000000	1.369732
2122.000000	1.369629
2120.000000	1.369556
2118.000000	1.369575
2116.000000	1.369597
2114.000000	1.369598
2112.000000	1.369564
2110.000000	1.369586
2108.000000	1.369641
2106.000000	1.369584
2104.000000	1.369604
2102.000000	1.369519
2100.000000	1.369362
2098.000000	1.369362
2096.000000	1.369398
2094.000000	1.369247
2092.000000	1.369172
2090.000000	1.369278
2088.000000	1.369344
2086.000000	1.369216
2084.000000	1.369215
2082.000000	1.369199
2080.000000	1.369116
2078.000000	1.369075
2076.000000	1.369106
2074.000000	1.369082
2072.000000	1.369158
2070.000000	1.369147
2068.000000	1.368989
2066.000000	1.368820
2064.000000	1.368848
2062.000000	1.368830
2060.000000	1.368784
2058.000000	1.368737
2056.000000	1.368761
2054.000000	1.368727
2052.000000	1.368701
2050.000000	1.368684
2048.000000	1.368654
2046.000000	1.368526
2044.000000	1.368451
2042.000000	1.368469
2040.000000	1.368591
2038.000000	1.368624
2036.000000	1.368576
2034.000000	1.368478
2032.000000	1.368419
2030.000000	1.368366
2028.000000	1.368474
2026.000000	1.368542
2024.000000	1.368471
2022.000000	1.368333
2020.000000	1.368194
2018.000000	1.368064
2016.000000	1.368154
2014.000000	1.368211
2012.000000	1.368257
2010.000000	1.368323
2008.000000	1.368323
2006.000000	1.368234
2004.000000	1.368205
2002.000000	1.368154
2000.000000	1.368134
1998.000000	1.368123
1996.000000	1.368104
1994.000000	1.367920
1992.000000	1.367893
1990.000000	1.367992
1988.000000	1.367989
1986.000000	1.368082
1984.000000	1.368151
1982.000000	1.368109
1980.000000	1.368016
1978.000000	1.367936
1976.000000	1.367983
1974.000000	1.367975
1972.000000	1.367901
1970.000000	1.367797
1968.000000	1.367749
1966.000000	1.367922
1964.000000	1.367970
1962.000000	1.367764
1960.000000	1.367726
1958.000000	1.368064
1956.000000	1.368156
1954.000000	1.368055
1952.000000	1.368018
1950.000000	1.367949
1948.000000	1.367955
1946.000000	1.367795
1944.000000	1.367452
1942.000000	1.367662
1940.000000	1.368195
1938.000000	1.368205
1936.000000	1.368182
1934.000000	1.368124
1932.000000	1.368128
1930.000000	1.368128
1928.000000	1.368180
1926.000000	1.367974
1924.000000	1.367743
1922.000000	1.367960
1920.000000	1.367649
1918.000000	1.367472
1916.000000	1.368279
1914.000000	1.368374
1912.000000	1.368261
1910.000000	1.368206
1908.000000	1.368442
1906.000000	1.368618
1904.000000	1.368688
1902.000000	1.368637
1900.000000	1.368678
1898.000000	1.368549
1896.000000	1.368502
1894.000000	1.368572
1892.000000	1.368227
1890.000000	1.367915
1888.000000	1.368577
1886.000000	1.368744
1884.000000	1.368752
1882.000000	1.368757
1880.000000	1.368721
1878.000000	1.368718
1876.000000	1.368843
1874.000000	1.368745
1872.000000	1.367989
1870.000000	1.366926
1868.000000	1.367748
1866.000000	1.368782
1864.000000	1.368945
1862.000000	1.368786
1860.000000	1.368779
1858.000000	1.368751
1856.000000	1.368809
1854.000000	1.368747
1852.000000	1.368822
1850.000000	1.368585
1848.000000	1.367976
1846.000000	1.366187
1844.000000	1.366563
1842.000000	1.368839
1840.000000	1.368954
1838.000000	1.368656
1836.000000	1.368719
1834.000000	1.368534
1832.000000	1.367500
1830.000000	1.367267
1828.000000	1.368197
1826.000000	1.367977
1824.000000	1.368680
1822.000000	1.369221
1820.000000	1.369131
1818.000000	1.369027
1816.000000	1.369126
1814.000000	1.368902
1812.000000	1.368534
1810.000000	1.368650
1808.000000	1.369042
1806.000000	1.368968
1804.000000	1.368484
1802.000000	1.367858
1800.000000	1.368253
1798.000000	1.368735
1796.000000	1.368063
1794.000000	1.365987
1792.000000	1.366657
1790.000000	1.368981
1788.000000	1.369008
1786.000000	1.368175
1784.000000	1.368493
1782.000000	1.368473
1780.000000	1.368625
1778.000000	1.368852
1776.000000	1.367661
1774.000000	1.364956
1772.000000	1.365774
1770.000000	1.367962
1768.000000	1.368314
1766.000000	1.369393
1764.000000	1.368147
1762.000000	1.367559
1760.000000	1.368879
1758.000000	1.368482
1756.000000	1.368820
1754.000000	1.368138
1752.000000	1.365933
1750.000000	1.367175
1748.000000	1.368653
1746.000000	1.368964
1744.000000	1.368682
1742.000000	1.367910
1740.000000	1.367840
1738.000000	1.368512
1736.000000	1.363866
1734.000000	1.363293
1732.000000	1.369154
1730.000000	1.370360
1728.000000	1.370457
1726.000000	1.370344
1724.000000	1.370328
1722.000000	1.369781
1720.000000	1.365842
1718.000000	1.363121
1716.000000	1.367342
1714.000000	1.370217
1712.000000	1.370821
1710.000000	1.370169
1708.000000	1.369242
1706.000000	1.368484
1704.000000	1.368284
1702.000000	1.362924
1700.000000	1.363210
1698.000000	1.365324
1696.000000	1.364994
1694.000000	1.370945
1692.000000	1.371793
1690.000000	1.370611
1688.000000	1.368423
1686.000000	1.362497
1684.000000	1.364873
1682.000000	1.371384
1680.000000	1.371660
1678.000000	1.369885
1676.000000	1.367738
1674.000000	1.369768
1672.000000	1.369393
1670.000000	1.368354
1668.000000	1.371044
1666.000000	1.371909
1664.000000	1.370124
1662.000000	1.371031
1660.000000	1.372470
1658.000000	1.371644
1656.000000	1.365439
1654.000000	1.358250
1652.000000	1.366082
1650.000000	1.371765
1648.000000	1.367645
1646.000000	1.368754
1644.000000	1.372746
1642.000000	1.373081
1640.000000	1.371957
1638.000000	1.368422
1636.000000	1.366665
1634.000000	1.371675
1632.000000	1.373645
1630.000000	1.372260
1628.000000	1.371780
1626.000000	1.371331
1624.000000	1.370342
1622.000000	1.371803
1620.000000	1.371201
1618.000000	1.367401
1616.000000	1.369626
1614.000000	1.373406
1612.000000	1.372908
1610.000000	1.372976
1608.000000	1.373643
1606.000000	1.374439
1604.000000	1.374602
1602.000000	1.374777
1600.000000	1.374902
1598.000000	1.374939
1596.000000	1.374702
1594.000000	1.374737
1592.000000	1.374715
1590.000000	1.374630
1588.000000	1.374586
1586.000000	1.374605
1584.000000	1.374594
1582.000000	1.374630
1580.000000	1.373721
1578.000000	1.369497
1576.000000	1.369630
1574.000000	1.374578
1572.000000	1.373049
1570.000000	1.371607
1568.000000	1.373469
1566.000000	1.373832
1564.000000	1.372822
1562.000000	1.367265
1560.000000	1.360889
1558.000000	1.366829
1556.000000	1.372046
1554.000000	1.372958
1552.000000	1.374190
1550.000000	1.374250
1548.000000	1.374049
1546.000000	1.372049
1544.000000	1.369343
1542.000000	1.365234
1540.000000	1.365183
1538.000000	1.372294
1536.000000	1.373705
1534.000000	1.371765
1532.000000	1.373720
1530.000000	1.373934
1528.000000	1.372396
1526.000000	1.371504
1524.000000	1.369597
1522.000000	1.367290
1520.000000	1.370347
1518.000000	1.371619
1516.000000	1.372239
1514.000000	1.373035
1512.000000	1.372497
1510.000000	1.369849
1508.000000	1.364348
1506.000000	1.366444
1504.000000	1.372515
1502.000000	1.371524
1500.000000	1.367788
1498.000000	1.365133
1496.000000	1.368209
1494.000000	1.374425
1492.000000	1.375765
1490.000000	1.375542
1488.000000	1.376171
1486.000000	1.376433
1484.000000	1.376032
1482.000000	1.375125
1480.000000	1.374756
1478.000000	1.373389
1476.000000	1.371516
1474.000000	1.369344
1472.000000	1.370966
1470.000000	1.374044
1468.000000	1.373520
1466.000000	1.371802
1464.000000	1.372715
1462.000000	1.373319
1460.000000	1.369463
1458.000000	1.364770
1456.000000	1.368207
1454.000000	1.372736
1452.000000	1.373387
1450.000000	1.374451
1448.000000	1.375158
1446.000000	1.375500
1444.000000	1.374736
1442.000000	1.374314
1440.000000	1.373035
1438.000000	1.370274
1436.000000	1.371563
1434.000000	1.374052
1432.000000	1.373282
1430.000000	1.373216
1428.000000	1.373766
1426.000000	1.373507
1424.000000	1.373043
1422.000000	1.371754
1420.000000	1.369558
1418.000000	1.371865
1416.000000	1.373626
1414.000000	1.373526
1412.000000	1.373265
1410.000000	1.373061
1408.000000	1.372406
1406.000000	1.372224
1404.000000	1.373227
1402.000000	1.373886
1400.000000	1.373262
1398.000000	1.373474
1396.000000	1.372860
1394.000000	1.373281
1392.000000	1.374116
1390.000000	1.372996
1388.000000	1.371692
1386.000000	1.372671
1384.000000	1.373815
1382.000000	1.374149
1380.000000	1.373790
1378.000000	1.373318
1376.000000	1.372560
1374.000000	1.372526
1372.000000	1.373158
1370.000000	1.373142
1368.000000	1.373008
1366.000000	1.372820
1364.000000	1.372042
1362.000000	1.372196
1360.000000	1.372848
1358.000000	1.372914
1356.000000	1.372702
1354.000000	1.372670
1352.000000	1.372628
1350.000000	1.372611
1348.000000	1.372614
1346.000000	1.372647
1344.000000	1.372503
1342.000000	1.372087
1340.000000	1.371759
1338.000000	1.372196
1336.000000	1.372547
1334.000000	1.372642
1332.000000	1.372534
1330.000000	1.372405
1328.000000	1.372267
1326.000000	1.372174
1324.000000	1.372056
1322.000000	1.371928
1320.000000	1.371733
1318.000000	1.371614
1316.000000	1.371551
1314.000000	1.371633
1312.000000	1.371570
1310.000000	1.371495
1308.000000	1.371469
1306.000000	1.371515
1304.000000	1.371366
1302.000000	1.371227
1300.000000	1.371097
1298.000000	1.371050
1296.000000	1.371027
1294.000000	1.371098
1292.000000	1.371040
1290.000000	1.370917
1288.000000	1.370835
1286.000000	1.370881
1284.000000	1.370887
1282.000000	1.370903
1280.000000	1.370871
1278.000000	1.370883
1276.000000	1.370754
1274.000000	1.370833
1272.000000	1.371052
1270.000000	1.371289
1268.000000	1.371710
1266.000000	1.372815
1264.000000	1.374702
1262.000000	1.377431
1260.000000	1.379909
1258.000000	1.380818
1256.000000	1.379981
1254.000000	1.378156
1252.000000	1.376205
1250.000000	1.374959
1248.000000	1.374370
1246.000000	1.374182
1244.000000	1.374079
1242.000000	1.374312
1240.000000	1.374727
1238.000000	1.375220
1236.000000	1.375429
1234.000000	1.375584
1232.000000	1.375734
1230.000000	1.376114
1228.000000	1.376367
1226.000000	1.376513
1224.000000	1.376703
1222.000000	1.377018
1220.000000	1.377245
1218.000000	1.377488
1216.000000	1.377709
1214.000000	1.378116
1212.000000	1.378433
1210.000000	1.378640
1208.000000	1.378918
1206.000000	1.379336
1204.000000	1.379615
1202.000000	1.379842
1200.000000	1.380031
1198.000000	1.380399
1196.000000	1.380799
1194.000000	1.381054
1192.000000	1.381095
1190.000000	1.381414
1188.000000	1.381706
1186.000000	1.381963
1184.000000	1.381840
1182.000000	1.381939
1180.000000	1.383271
1178.000000	1.384462
1176.000000	1.384359
1174.000000	1.384382
1172.000000	1.384889
1170.000000	1.385391
1168.000000	1.385523
1166.000000	1.385716
1164.000000	1.386174
1162.000000	1.386632
1160.000000	1.386885
1158.000000	1.387330
1156.000000	1.387804
1154.000000	1.388349
1152.000000	1.388446
1150.000000	1.388657
1148.000000	1.389111
1146.000000	1.389529
1144.000000	1.389813
1142.000000	1.390262
1140.000000	1.390732
1138.000000	1.391142
1136.000000	1.391287
1134.000000	1.391379
1132.000000	1.391718
1130.000000	1.392071
1128.000000	1.392137
1126.000000	1.392483
1124.000000	1.392872
1122.000000	1.393021
1120.000000	1.393117
1118.000000	1.393618
1116.000000	1.393978
1114.000000	1.394250
1112.000000	1.394780
1110.000000	1.395306
1108.000000	1.395783
1106.000000	1.396250
1104.000000	1.396697
1102.000000	1.397386
1100.000000	1.397873
1098.000000	1.398434
1096.000000	1.398525
1094.000000	1.398364
1092.000000	1.398646
1090.000000	1.398814
1088.000000	1.398434
1086.000000	1.398250
1084.000000	1.398137
1082.000000	1.398239
1080.000000	1.398145
1078.000000	1.397992
1076.000000	1.397579
1074.000000	1.397345
1072.000000	1.397006
1070.000000	1.396141
1068.000000	1.395623
1066.000000	1.395472
1064.000000	1.395118
1062.000000	1.394927
1060.000000	1.394325
1058.000000	1.393602
1056.000000	1.392310
1054.000000	1.391181
1052.000000	1.390926
1050.000000	1.391997
1048.000000	1.393028
1046.000000	1.392648
1044.000000	1.391334
1042.000000	1.390592
1040.000000	1.390005
1038.000000	1.389403
1036.000000	1.388689
1034.000000	1.388550
1032.000000	1.388743
1030.000000	1.388519
1028.000000	1.387869
1026.000000	1.387253
1024.000000	1.386401
1022.000000	1.386071
1020.000000	1.385554
1018.000000	1.385547
1016.000000	1.385479
1014.000000	1.383917
1012.000000	1.382028
1010.000000	1.380315
1008.000000	1.378067
1006.000000	1.376092
1004.000000	1.374642
1002.000000	1.372714
1000.000000	1.370640
