PE IR       SUBTECH     SPECTRUM    ASCII       PEDS        4.00        
   -1
TE110A_073_80K_AFTER_130K.ASC
20/05/14
15:15:27.00
20/05/14
15:15:27.00
Administrator
TE110A.Thursday, May 14 2020, 004.
1000.000000
#HDR
-1
-1
#GR
cm-1
A
1.0
0.0
6000.000000
-2.000000
2501
8
1.395839
1.334467
#DATA
6000.000000	1.351271
5998.000000	1.351635
5996.000000	1.351363
5994.000000	1.350575
5992.000000	1.349971
5990.000000	1.350012
5988.000000	1.350589
5986.000000	1.351184
5984.000000	1.351000
5982.000000	1.350651
5980.000000	1.350475
5978.000000	1.350644
5976.000000	1.351018
5974.000000	1.351275
5972.000000	1.350976
5970.000000	1.350697
5968.000000	1.350441
5966.000000	1.350465
5964.000000	1.350396
5962.000000	1.350184
5960.000000	1.350372
5958.000000	1.350284
5956.000000	1.350251
5954.000000	1.350340
5952.000000	1.350783
5950.000000	1.350760
5948.000000	1.350567
5946.000000	1.350619
5944.000000	1.350521
5942.000000	1.350125
5940.000000	1.348994
5938.000000	1.348451
5936.000000	1.349103
5934.000000	1.349840
5932.000000	1.350455
5930.000000	1.350345
5928.000000	1.349800
5926.000000	1.349877
5924.000000	1.349578
5922.000000	1.349335
5920.000000	1.349549
5918.000000	1.349875
5916.000000	1.350303
5914.000000	1.350181
5912.000000	1.349934
5910.000000	1.350384
5908.000000	1.350601
5906.000000	1.350305
5904.000000	1.350073
5902.000000	1.350277
5900.000000	1.350871
5898.000000	1.350772
5896.000000	1.350259
5894.000000	1.349904
5892.000000	1.349656
5890.000000	1.349614
5888.000000	1.349388
5886.000000	1.349441
5884.000000	1.349366
5882.000000	1.348845
5880.000000	1.348509
5878.000000	1.348760
5876.000000	1.348653
5874.000000	1.348525
5872.000000	1.348462
5870.000000	1.348946
5868.000000	1.349700
5866.000000	1.349827
5864.000000	1.349348
5862.000000	1.349076
5860.000000	1.348811
5858.000000	1.349089
5856.000000	1.348955
5854.000000	1.348835
5852.000000	1.348816
5850.000000	1.349140
5848.000000	1.349137
5846.000000	1.349024
5844.000000	1.349175
5842.000000	1.349660
5840.000000	1.350029
5838.000000	1.349742
5836.000000	1.349502
5834.000000	1.349394
5832.000000	1.349107
5830.000000	1.348926
5828.000000	1.348876
5826.000000	1.349103
5824.000000	1.349300
5822.000000	1.349152
5820.000000	1.349159
5818.000000	1.349398
5816.000000	1.349888
5814.000000	1.350022
5812.000000	1.349555
5810.000000	1.348787
5808.000000	1.348813
5806.000000	1.349626
5804.000000	1.350191
5802.000000	1.350037
5800.000000	1.349704
5798.000000	1.349413
5796.000000	1.349405
5794.000000	1.349244
5792.000000	1.349116
5790.000000	1.349222
5788.000000	1.349164
5786.000000	1.349067
5784.000000	1.348964
5782.000000	1.348727
5780.000000	1.348761
5778.000000	1.348584
5776.000000	1.348951
5774.000000	1.349546
5772.000000	1.349795
5770.000000	1.349445
5768.000000	1.348880
5766.000000	1.348999
5764.000000	1.349623
5762.000000	1.349818
5760.000000	1.349815
5758.000000	1.349447
5756.000000	1.349330
5754.000000	1.349336
5752.000000	1.349320
5750.000000	1.349304
5748.000000	1.348958
5746.000000	1.348974
5744.000000	1.349223
5742.000000	1.349248
5740.000000	1.349119
5738.000000	1.348816
5736.000000	1.348270
5734.000000	1.348110
5732.000000	1.348438
5730.000000	1.349159
5728.000000	1.349502
5726.000000	1.349483
5724.000000	1.349710
5722.000000	1.349856
5720.000000	1.349508
5718.000000	1.348977
5716.000000	1.348738
5714.000000	1.349011
5712.000000	1.348976
5710.000000	1.348905
5708.000000	1.348896
5706.000000	1.348796
5704.000000	1.348909
5702.000000	1.348829
5700.000000	1.348861
5698.000000	1.348878
5696.000000	1.348904
5694.000000	1.349081
5692.000000	1.349242
5690.000000	1.349224
5688.000000	1.349372
5686.000000	1.349358
5684.000000	1.349369
5682.000000	1.349401
5680.000000	1.349451
5678.000000	1.349255
5676.000000	1.348879
5674.000000	1.348535
5672.000000	1.348493
5670.000000	1.348726
5668.000000	1.349049
5666.000000	1.349104
5664.000000	1.348751
5662.000000	1.348331
5660.000000	1.348206
5658.000000	1.348199
5656.000000	1.348518
5654.000000	1.348705
5652.000000	1.348986
5650.000000	1.349341
5648.000000	1.349713
5646.000000	1.349843
5644.000000	1.349392
5642.000000	1.348870
5640.000000	1.348971
5638.000000	1.349141
5636.000000	1.349122
5634.000000	1.348708
5632.000000	1.348475
5630.000000	1.348656
5628.000000	1.348991
5626.000000	1.349111
5624.000000	1.348795
5622.000000	1.348377
5620.000000	1.348442
5618.000000	1.348893
5616.000000	1.348771
5614.000000	1.348044
5612.000000	1.347681
5610.000000	1.348238
5608.000000	1.349063
5606.000000	1.349272
5604.000000	1.349015
5602.000000	1.348575
5600.000000	1.348449
5598.000000	1.348759
5596.000000	1.349051
5594.000000	1.348957
5592.000000	1.348534
5590.000000	1.348331
5588.000000	1.348435
5586.000000	1.348573
5584.000000	1.348760
5582.000000	1.348877
5580.000000	1.348645
5578.000000	1.348307
5576.000000	1.347971
5574.000000	1.348089
5572.000000	1.348457
5570.000000	1.348379
5568.000000	1.348454
5566.000000	1.348608
5564.000000	1.349010
5562.000000	1.349087
5560.000000	1.348990
5558.000000	1.348793
5556.000000	1.348368
5554.000000	1.348366
5552.000000	1.348573
5550.000000	1.348731
5548.000000	1.348472
5546.000000	1.348471
5544.000000	1.348858
5542.000000	1.349034
5540.000000	1.349012
5538.000000	1.348835
5536.000000	1.348924
5534.000000	1.349016
5532.000000	1.348861
5530.000000	1.348857
5528.000000	1.348888
5526.000000	1.348803
5524.000000	1.348470
5522.000000	1.348205
5520.000000	1.348535
5518.000000	1.348834
5516.000000	1.348849
5514.000000	1.348758
5512.000000	1.348593
5510.000000	1.348268
5508.000000	1.347935
5506.000000	1.348029
5504.000000	1.348311
5502.000000	1.348208
5500.000000	1.347919
5498.000000	1.347894
5496.000000	1.347966
5494.000000	1.347804
5492.000000	1.347677
5490.000000	1.347945
5488.000000	1.348346
5486.000000	1.348421
5484.000000	1.348296
5482.000000	1.348299
5480.000000	1.348292
5478.000000	1.348033
5476.000000	1.347911
5474.000000	1.348254
5472.000000	1.348519
5470.000000	1.348444
5468.000000	1.348397
5466.000000	1.348302
5464.000000	1.347836
5462.000000	1.347448
5460.000000	1.347690
5458.000000	1.348039
5456.000000	1.348149
5454.000000	1.347932
5452.000000	1.347934
5450.000000	1.347931
5448.000000	1.347833
5446.000000	1.347482
5444.000000	1.347451
5442.000000	1.348017
5440.000000	1.348500
5438.000000	1.348223
5436.000000	1.347703
5434.000000	1.347729
5432.000000	1.348213
5430.000000	1.348652
5428.000000	1.349024
5426.000000	1.349387
5424.000000	1.349439
5422.000000	1.348959
5420.000000	1.348447
5418.000000	1.348115
5416.000000	1.347941
5414.000000	1.347565
5412.000000	1.347285
5410.000000	1.347495
5408.000000	1.348186
5406.000000	1.348869
5404.000000	1.349001
5402.000000	1.348660
5400.000000	1.347986
5398.000000	1.347314
5396.000000	1.347000
5394.000000	1.347434
5392.000000	1.348033
5390.000000	1.347929
5388.000000	1.347376
5386.000000	1.347337
5384.000000	1.348027
5382.000000	1.348357
5380.000000	1.347736
5378.000000	1.347024
5376.000000	1.347158
5374.000000	1.347879
5372.000000	1.348352
5370.000000	1.348265
5368.000000	1.348199
5366.000000	1.348506
5364.000000	1.348798
5362.000000	1.348611
5360.000000	1.348120
5358.000000	1.347667
5356.000000	1.347261
5354.000000	1.347305
5352.000000	1.347956
5350.000000	1.348613
5348.000000	1.348430
5346.000000	1.347712
5344.000000	1.347286
5342.000000	1.347245
5340.000000	1.347198
5338.000000	1.347440
5336.000000	1.347991
5334.000000	1.348459
5332.000000	1.348433
5330.000000	1.347944
5328.000000	1.347842
5326.000000	1.348058
5324.000000	1.348282
5322.000000	1.348327
5320.000000	1.348228
5318.000000	1.348217
5316.000000	1.348147
5314.000000	1.348230
5312.000000	1.348362
5310.000000	1.348218
5308.000000	1.347835
5306.000000	1.347798
5304.000000	1.348120
5302.000000	1.348460
5300.000000	1.348358
5298.000000	1.347897
5296.000000	1.347570
5294.000000	1.347608
5292.000000	1.347885
5290.000000	1.348273
5288.000000	1.348523
5286.000000	1.348458
5284.000000	1.348275
5282.000000	1.348327
5280.000000	1.348466
5278.000000	1.348352
5276.000000	1.348152
5274.000000	1.348051
5272.000000	1.347865
5270.000000	1.347760
5268.000000	1.347724
5266.000000	1.347565
5264.000000	1.347439
5262.000000	1.347579
5260.000000	1.347902
5258.000000	1.347881
5256.000000	1.347815
5254.000000	1.347994
5252.000000	1.347918
5250.000000	1.347672
5248.000000	1.347698
5246.000000	1.348222
5244.000000	1.348839
5242.000000	1.348997
5240.000000	1.348795
5238.000000	1.348401
5236.000000	1.348030
5234.000000	1.347936
5232.000000	1.347791
5230.000000	1.347586
5228.000000	1.347422
5226.000000	1.347457
5224.000000	1.347871
5222.000000	1.348261
5220.000000	1.348443
5218.000000	1.348185
5216.000000	1.347836
5214.000000	1.347877
5212.000000	1.347999
5210.000000	1.347784
5208.000000	1.347584
5206.000000	1.347871
5204.000000	1.348460
5202.000000	1.348834
5200.000000	1.348696
5198.000000	1.348383
5196.000000	1.348393
5194.000000	1.348657
5192.000000	1.348753
5190.000000	1.348567
5188.000000	1.348260
5186.000000	1.348100
5184.000000	1.348283
5182.000000	1.348479
5180.000000	1.348374
5178.000000	1.348328
5176.000000	1.348348
5174.000000	1.348234
5172.000000	1.348041
5170.000000	1.348244
5168.000000	1.348413
5166.000000	1.348483
5164.000000	1.348628
5162.000000	1.348868
5160.000000	1.348945
5158.000000	1.348684
5156.000000	1.348504
5154.000000	1.348377
5152.000000	1.348424
5150.000000	1.348610
5148.000000	1.348938
5146.000000	1.348890
5144.000000	1.348355
5142.000000	1.348079
5140.000000	1.348161
5138.000000	1.348344
5136.000000	1.348550
5134.000000	1.348771
5132.000000	1.348972
5130.000000	1.349029
5128.000000	1.349141
5126.000000	1.349081
5124.000000	1.348837
5122.000000	1.348639
5120.000000	1.348531
5118.000000	1.348413
5116.000000	1.348540
5114.000000	1.348900
5112.000000	1.349012
5110.000000	1.348830
5108.000000	1.348678
5106.000000	1.348705
5104.000000	1.348760
5102.000000	1.348932
5100.000000	1.349168
5098.000000	1.349202
5096.000000	1.349453
5094.000000	1.349715
5092.000000	1.349533
5090.000000	1.349035
5088.000000	1.348828
5086.000000	1.348919
5084.000000	1.348742
5082.000000	1.348454
5080.000000	1.348160
5078.000000	1.348189
5076.000000	1.348549
5074.000000	1.348811
5072.000000	1.348844
5070.000000	1.348795
5068.000000	1.348805
5066.000000	1.348798
5064.000000	1.349002
5062.000000	1.349130
5060.000000	1.349011
5058.000000	1.348965
5056.000000	1.349087
5054.000000	1.349154
5052.000000	1.349053
5050.000000	1.348890
5048.000000	1.348719
5046.000000	1.348771
5044.000000	1.348859
5042.000000	1.348914
5040.000000	1.349007
5038.000000	1.349132
5036.000000	1.349041
5034.000000	1.348973
5032.000000	1.349053
5030.000000	1.349215
5028.000000	1.349207
5026.000000	1.349109
5024.000000	1.349123
5022.000000	1.349246
5020.000000	1.349357
5018.000000	1.349389
5016.000000	1.349598
5014.000000	1.349720
5012.000000	1.349631
5010.000000	1.349348
5008.000000	1.349400
5006.000000	1.349756
5004.000000	1.349867
5002.000000	1.349704
5000.000000	1.349504
4998.000000	1.349476
4996.000000	1.349631
4994.000000	1.349853
4992.000000	1.349932
4990.000000	1.349816
4988.000000	1.349855
4986.000000	1.349863
4984.000000	1.349835
4982.000000	1.349865
4980.000000	1.349922
4978.000000	1.349923
4976.000000	1.349948
4974.000000	1.349976
4972.000000	1.349753
4970.000000	1.349561
4968.000000	1.349598
4966.000000	1.349625
4964.000000	1.349667
4962.000000	1.349814
4960.000000	1.349944
4958.000000	1.349858
4956.000000	1.349959
4954.000000	1.350270
4952.000000	1.350481
4950.000000	1.350537
4948.000000	1.350553
4946.000000	1.350590
4944.000000	1.350377
4942.000000	1.349965
4940.000000	1.349747
4938.000000	1.349910
4936.000000	1.350264
4934.000000	1.350585
4932.000000	1.350590
4930.000000	1.350163
4928.000000	1.349734
4926.000000	1.349765
4924.000000	1.350018
4922.000000	1.350071
4920.000000	1.350080
4918.000000	1.350280
4916.000000	1.350387
4914.000000	1.350298
4912.000000	1.350147
4910.000000	1.350143
4908.000000	1.350217
4906.000000	1.350285
4904.000000	1.350418
4902.000000	1.350476
4900.000000	1.350415
4898.000000	1.350266
4896.000000	1.350369
4894.000000	1.350612
4892.000000	1.350776
4890.000000	1.350756
4888.000000	1.350614
4886.000000	1.350399
4884.000000	1.350155
4882.000000	1.350043
4880.000000	1.350243
4878.000000	1.350629
4876.000000	1.350833
4874.000000	1.350801
4872.000000	1.350728
4870.000000	1.350801
4868.000000	1.350775
4866.000000	1.350496
4864.000000	1.350186
4862.000000	1.350266
4860.000000	1.350620
4858.000000	1.350806
4856.000000	1.350849
4854.000000	1.350967
4852.000000	1.351017
4850.000000	1.350853
4848.000000	1.350721
4846.000000	1.350865
4844.000000	1.351066
4842.000000	1.351198
4840.000000	1.351205
4838.000000	1.351118
4836.000000	1.350937
4834.000000	1.350762
4832.000000	1.350891
4830.000000	1.351073
4828.000000	1.351053
4826.000000	1.350867
4824.000000	1.350684
4822.000000	1.350570
4820.000000	1.350528
4818.000000	1.350730
4816.000000	1.350967
4814.000000	1.351055
4812.000000	1.350915
4810.000000	1.350803
4808.000000	1.350866
4806.000000	1.350920
4804.000000	1.350969
4802.000000	1.351166
4800.000000	1.351366
4798.000000	1.351329
4796.000000	1.351089
4794.000000	1.350957
4792.000000	1.350965
4790.000000	1.351110
4788.000000	1.351194
4786.000000	1.351170
4784.000000	1.351127
4782.000000	1.351105
4780.000000	1.351176
4778.000000	1.351184
4776.000000	1.351036
4774.000000	1.350837
4772.000000	1.350834
4770.000000	1.350922
4768.000000	1.350991
4766.000000	1.350937
4764.000000	1.350827
4762.000000	1.350881
4760.000000	1.351106
4758.000000	1.351307
4756.000000	1.351253
4754.000000	1.351040
4752.000000	1.351085
4750.000000	1.351520
4748.000000	1.351787
4746.000000	1.351700
4744.000000	1.351463
4742.000000	1.351305
4740.000000	1.351309
4738.000000	1.351487
4736.000000	1.351555
4734.000000	1.351309
4732.000000	1.351002
4730.000000	1.350972
4728.000000	1.351061
4726.000000	1.351030
4724.000000	1.350988
4722.000000	1.351074
4720.000000	1.351150
4718.000000	1.351249
4716.000000	1.351303
4714.000000	1.351271
4712.000000	1.351192
4710.000000	1.351049
4708.000000	1.350925
4706.000000	1.351045
4704.000000	1.351303
4702.000000	1.351349
4700.000000	1.351370
4698.000000	1.351481
4696.000000	1.351523
4694.000000	1.351385
4692.000000	1.351172
4690.000000	1.351029
4688.000000	1.351139
4686.000000	1.351325
4684.000000	1.351270
4682.000000	1.351167
4680.000000	1.351229
4678.000000	1.351366
4676.000000	1.351511
4674.000000	1.351623
4672.000000	1.351646
4670.000000	1.351544
4668.000000	1.351491
4666.000000	1.351657
4664.000000	1.351881
4662.000000	1.351977
4660.000000	1.351863
4658.000000	1.351617
4656.000000	1.351390
4654.000000	1.351329
4652.000000	1.351331
4650.000000	1.351347
4648.000000	1.351443
4646.000000	1.351603
4644.000000	1.351648
4642.000000	1.351513
4640.000000	1.351411
4638.000000	1.351481
4636.000000	1.351509
4634.000000	1.351444
4632.000000	1.351348
4630.000000	1.351366
4628.000000	1.351477
4626.000000	1.351558
4624.000000	1.351546
4622.000000	1.351524
4620.000000	1.351588
4618.000000	1.351716
4616.000000	1.351865
4614.000000	1.351857
4612.000000	1.351721
4610.000000	1.351573
4608.000000	1.351556
4606.000000	1.351595
4604.000000	1.351700
4602.000000	1.351759
4600.000000	1.351767
4598.000000	1.351732
4596.000000	1.351799
4594.000000	1.351804
4592.000000	1.351649
4590.000000	1.351524
4588.000000	1.351606
4586.000000	1.351767
4584.000000	1.351873
4582.000000	1.351984
4580.000000	1.352120
4578.000000	1.352223
4576.000000	1.352220
4574.000000	1.352281
4572.000000	1.352270
4570.000000	1.352057
4568.000000	1.351953
4566.000000	1.352076
4564.000000	1.352212
4562.000000	1.352230
4560.000000	1.352115
4558.000000	1.352051
4556.000000	1.352256
4554.000000	1.352461
4552.000000	1.352509
4550.000000	1.352419
4548.000000	1.352287
4546.000000	1.352145
4544.000000	1.352105
4542.000000	1.352113
4540.000000	1.352052
4538.000000	1.351961
4536.000000	1.352042
4534.000000	1.352140
4532.000000	1.352034
4530.000000	1.351905
4528.000000	1.351849
4526.000000	1.351887
4524.000000	1.352047
4522.000000	1.352208
4520.000000	1.352189
4518.000000	1.352047
4516.000000	1.351917
4514.000000	1.351837
4512.000000	1.351785
4510.000000	1.351763
4508.000000	1.351856
4506.000000	1.351928
4504.000000	1.352090
4502.000000	1.352265
4500.000000	1.352270
4498.000000	1.352120
4496.000000	1.352079
4494.000000	1.352154
4492.000000	1.352308
4490.000000	1.352483
4488.000000	1.352477
4486.000000	1.352233
4484.000000	1.352131
4482.000000	1.352443
4480.000000	1.352715
4478.000000	1.352618
4476.000000	1.352361
4474.000000	1.352173
4472.000000	1.352179
4470.000000	1.352299
4468.000000	1.352378
4466.000000	1.352372
4464.000000	1.352283
4462.000000	1.352224
4460.000000	1.352205
4458.000000	1.352266
4456.000000	1.352409
4454.000000	1.352474
4452.000000	1.352370
4450.000000	1.352361
4448.000000	1.352506
4446.000000	1.352551
4444.000000	1.352413
4442.000000	1.352232
4440.000000	1.352026
4438.000000	1.351940
4436.000000	1.352136
4434.000000	1.352399
4432.000000	1.352509
4430.000000	1.352488
4428.000000	1.352301
4426.000000	1.352223
4424.000000	1.352378
4422.000000	1.352511
4420.000000	1.352427
4418.000000	1.352283
4416.000000	1.352267
4414.000000	1.352376
4412.000000	1.352476
4410.000000	1.352465
4408.000000	1.352359
4406.000000	1.352291
4404.000000	1.352360
4402.000000	1.352418
4400.000000	1.352426
4398.000000	1.352459
4396.000000	1.352480
4394.000000	1.352380
4392.000000	1.352305
4390.000000	1.352458
4388.000000	1.352514
4386.000000	1.352305
4384.000000	1.352375
4382.000000	1.352756
4380.000000	1.352879
4378.000000	1.352799
4376.000000	1.352741
4374.000000	1.352686
4372.000000	1.352730
4370.000000	1.352870
4368.000000	1.352901
4366.000000	1.352823
4364.000000	1.352753
4362.000000	1.352634
4360.000000	1.352480
4358.000000	1.352415
4356.000000	1.352346
4354.000000	1.352313
4352.000000	1.352449
4350.000000	1.352564
4348.000000	1.352504
4346.000000	1.352514
4344.000000	1.352557
4342.000000	1.352498
4340.000000	1.352383
4338.000000	1.352364
4336.000000	1.352449
4334.000000	1.352479
4332.000000	1.352318
4330.000000	1.352192
4328.000000	1.352164
4326.000000	1.352275
4324.000000	1.352555
4322.000000	1.352731
4320.000000	1.352633
4318.000000	1.352500
4316.000000	1.352485
4314.000000	1.352627
4312.000000	1.352660
4310.000000	1.352514
4308.000000	1.352516
4306.000000	1.352649
4304.000000	1.352542
4302.000000	1.352348
4300.000000	1.352245
4298.000000	1.352216
4296.000000	1.352324
4294.000000	1.352500
4292.000000	1.352560
4290.000000	1.352622
4288.000000	1.352650
4286.000000	1.352595
4284.000000	1.352566
4282.000000	1.352573
4280.000000	1.352615
4278.000000	1.352708
4276.000000	1.352649
4274.000000	1.352473
4272.000000	1.352471
4270.000000	1.352716
4268.000000	1.352869
4266.000000	1.352758
4264.000000	1.352460
4262.000000	1.352201
4260.000000	1.352306
4258.000000	1.352609
4256.000000	1.352545
4254.000000	1.352344
4252.000000	1.352347
4250.000000	1.352367
4248.000000	1.352271
4246.000000	1.352207
4244.000000	1.352176
4242.000000	1.352155
4240.000000	1.352216
4238.000000	1.352378
4236.000000	1.352440
4234.000000	1.352385
4232.000000	1.352431
4230.000000	1.352460
4228.000000	1.352284
4226.000000	1.352154
4224.000000	1.352151
4222.000000	1.352063
4220.000000	1.351991
4218.000000	1.352122
4216.000000	1.352272
4214.000000	1.352136
4212.000000	1.351966
4210.000000	1.352100
4208.000000	1.352335
4206.000000	1.352392
4204.000000	1.352278
4202.000000	1.352189
4200.000000	1.352260
4198.000000	1.352373
4196.000000	1.352378
4194.000000	1.352198
4192.000000	1.352040
4190.000000	1.352125
4188.000000	1.352292
4186.000000	1.352407
4184.000000	1.352409
4182.000000	1.352340
4180.000000	1.352273
4178.000000	1.352081
4176.000000	1.351849
4174.000000	1.351926
4172.000000	1.352178
4170.000000	1.352266
4168.000000	1.352226
4166.000000	1.352151
4164.000000	1.351967
4162.000000	1.351888
4160.000000	1.351942
4158.000000	1.351995
4156.000000	1.352052
4154.000000	1.352061
4152.000000	1.351929
4150.000000	1.351826
4148.000000	1.351798
4146.000000	1.351747
4144.000000	1.351671
4142.000000	1.351629
4140.000000	1.351687
4138.000000	1.351810
4136.000000	1.351707
4134.000000	1.351487
4132.000000	1.351466
4130.000000	1.351514
4128.000000	1.351543
4126.000000	1.351649
4124.000000	1.351701
4122.000000	1.351614
4120.000000	1.351527
4118.000000	1.351553
4116.000000	1.351556
4114.000000	1.351481
4112.000000	1.351511
4110.000000	1.351567
4108.000000	1.351446
4106.000000	1.351400
4104.000000	1.351596
4102.000000	1.351709
4100.000000	1.351560
4098.000000	1.351356
4096.000000	1.351224
4094.000000	1.351309
4092.000000	1.351450
4090.000000	1.351330
4088.000000	1.351197
4086.000000	1.351291
4084.000000	1.351342
4082.000000	1.351304
4080.000000	1.351247
4078.000000	1.351186
4076.000000	1.351236
4074.000000	1.351346
4072.000000	1.351380
4070.000000	1.351445
4068.000000	1.351395
4066.000000	1.351220
4064.000000	1.351251
4062.000000	1.351308
4060.000000	1.351175
4058.000000	1.351001
4056.000000	1.350892
4054.000000	1.350954
4052.000000	1.350986
4050.000000	1.350928
4048.000000	1.350919
4046.000000	1.350983
4044.000000	1.351115
4042.000000	1.351096
4040.000000	1.350909
4038.000000	1.350832
4036.000000	1.350805
4034.000000	1.350733
4032.000000	1.350705
4030.000000	1.350776
4028.000000	1.350805
4026.000000	1.350775
4024.000000	1.350805
4022.000000	1.350757
4020.000000	1.350649
4018.000000	1.350668
4016.000000	1.350644
4014.000000	1.350558
4012.000000	1.350456
4010.000000	1.350319
4008.000000	1.350324
4006.000000	1.350486
4004.000000	1.350499
4002.000000	1.350268
4000.000000	1.350126
3998.000000	1.350212
3996.000000	1.350266
3994.000000	1.350310
3992.000000	1.350425
3990.000000	1.350461
3988.000000	1.350373
3986.000000	1.350307
3984.000000	1.350352
3982.000000	1.350428
3980.000000	1.350380
3978.000000	1.350218
3976.000000	1.350047
3974.000000	1.349955
3972.000000	1.349924
3970.000000	1.349958
3968.000000	1.350081
3966.000000	1.350039
3964.000000	1.349705
3962.000000	1.349483
3960.000000	1.349580
3958.000000	1.349753
3956.000000	1.349702
3954.000000	1.349488
3952.000000	1.349362
3950.000000	1.349314
3948.000000	1.349246
3946.000000	1.348947
3944.000000	1.348660
3942.000000	1.349130
3940.000000	1.349683
3938.000000	1.349495
3936.000000	1.348899
3934.000000	1.348354
3932.000000	1.348516
3930.000000	1.349167
3928.000000	1.349142
3926.000000	1.348710
3924.000000	1.348722
3922.000000	1.348600
3920.000000	1.347916
3918.000000	1.347764
3916.000000	1.348672
3914.000000	1.349399
3912.000000	1.349267
3910.000000	1.348835
3908.000000	1.347524
3906.000000	1.345368
3904.000000	1.344570
3902.000000	1.345654
3900.000000	1.347448
3898.000000	1.349254
3896.000000	1.349339
3894.000000	1.347164
3892.000000	1.346291
3890.000000	1.347621
3888.000000	1.346772
3886.000000	1.345764
3884.000000	1.347347
3882.000000	1.347487
3880.000000	1.347408
3878.000000	1.348417
3876.000000	1.347541
3874.000000	1.345739
3872.000000	1.343963
3870.000000	1.344429
3868.000000	1.346876
3866.000000	1.346823
3864.000000	1.346574
3862.000000	1.347890
3860.000000	1.347817
3858.000000	1.343889
3856.000000	1.336431
3854.000000	1.335888
3852.000000	1.345555
3850.000000	1.351371
3848.000000	1.349491
3846.000000	1.346869
3844.000000	1.345654
3842.000000	1.344230
3840.000000	1.341446
3838.000000	1.341655
3836.000000	1.345873
3834.000000	1.347664
3832.000000	1.347099
3830.000000	1.347237
3828.000000	1.347084
3826.000000	1.346372
3824.000000	1.344061
3822.000000	1.342519
3820.000000	1.344046
3818.000000	1.343473
3816.000000	1.343872
3814.000000	1.348237
3812.000000	1.348911
3810.000000	1.345360
3808.000000	1.343253
3806.000000	1.344502
3804.000000	1.343400
3802.000000	1.341743
3800.000000	1.345564
3798.000000	1.347746
3796.000000	1.347003
3794.000000	1.347603
3792.000000	1.347608
3790.000000	1.347102
3788.000000	1.346858
3786.000000	1.346613
3784.000000	1.346569
3782.000000	1.346048
3780.000000	1.345665
3778.000000	1.346594
3776.000000	1.347240
3774.000000	1.346324
3772.000000	1.344644
3770.000000	1.344479
3768.000000	1.345711
3766.000000	1.346332
3764.000000	1.346499
3762.000000	1.345524
3760.000000	1.344532
3758.000000	1.345098
3756.000000	1.343718
3754.000000	1.338766
3752.000000	1.336334
3750.000000	1.339944
3748.000000	1.341433
3746.000000	1.337456
3744.000000	1.340246
3742.000000	1.347226
3740.000000	1.345301
3738.000000	1.340279
3736.000000	1.339936
3734.000000	1.342090
3732.000000	1.344242
3730.000000	1.345623
3728.000000	1.344688
3726.000000	1.343836
3724.000000	1.344198
3722.000000	1.344549
3720.000000	1.345092
3718.000000	1.345159
3716.000000	1.343609
3714.000000	1.340772
3712.000000	1.340658
3710.000000	1.343925
3708.000000	1.346041
3706.000000	1.345502
3704.000000	1.343864
3702.000000	1.343617
3700.000000	1.344826
3698.000000	1.345010
3696.000000	1.344257
3694.000000	1.342666
3692.000000	1.339614
3690.000000	1.337811
3688.000000	1.341333
3686.000000	1.345796
3684.000000	1.345394
3682.000000	1.343413
3680.000000	1.341312
3678.000000	1.337440
3676.000000	1.336640
3674.000000	1.339962
3672.000000	1.339409
3670.000000	1.339661
3668.000000	1.343822
3666.000000	1.344621
3664.000000	1.343318
3662.000000	1.342840
3660.000000	1.341740
3658.000000	1.339933
3656.000000	1.340478
3654.000000	1.340898
3652.000000	1.337122
3650.000000	1.335374
3648.000000	1.339384
3646.000000	1.343043
3644.000000	1.342999
3642.000000	1.341829
3640.000000	1.341415
3638.000000	1.341206
3636.000000	1.340709
3634.000000	1.339784
3632.000000	1.336822
3630.000000	1.334467
3628.000000	1.338334
3626.000000	1.342394
3624.000000	1.341122
3622.000000	1.338220
3620.000000	1.337158
3618.000000	1.338664
3616.000000	1.339343
3614.000000	1.338412
3612.000000	1.337829
3610.000000	1.337696
3608.000000	1.338841
3606.000000	1.340228
3604.000000	1.339923
3602.000000	1.339055
3600.000000	1.338870
3598.000000	1.338764
3596.000000	1.338463
3594.000000	1.338731
3592.000000	1.338383
3590.000000	1.336698
3588.000000	1.336502
3586.000000	1.338348
3584.000000	1.339199
3582.000000	1.338698
3580.000000	1.338456
3578.000000	1.338581
3576.000000	1.338549
3574.000000	1.338424
3572.000000	1.337916
3570.000000	1.336531
3568.000000	1.335912
3566.000000	1.337398
3564.000000	1.338612
3562.000000	1.338453
3560.000000	1.338251
3558.000000	1.338294
3556.000000	1.338184
3554.000000	1.338087
3552.000000	1.338240
3550.000000	1.338159
3548.000000	1.337648
3546.000000	1.337747
3544.000000	1.338426
3542.000000	1.338750
3540.000000	1.338531
3538.000000	1.338277
3536.000000	1.338459
3534.000000	1.338708
3532.000000	1.338589
3530.000000	1.338298
3528.000000	1.338199
3526.000000	1.338337
3524.000000	1.338465
3522.000000	1.338736
3520.000000	1.339007
3518.000000	1.339247
3516.000000	1.339545
3514.000000	1.339534
3512.000000	1.339422
3510.000000	1.339562
3508.000000	1.339786
3506.000000	1.339815
3504.000000	1.339761
3502.000000	1.340099
3500.000000	1.340620
3498.000000	1.340862
3496.000000	1.340948
3494.000000	1.341130
3492.000000	1.341379
3490.000000	1.341522
3488.000000	1.341685
3486.000000	1.342021
3484.000000	1.342266
3482.000000	1.342515
3480.000000	1.342942
3478.000000	1.343361
3476.000000	1.343692
3474.000000	1.344083
3472.000000	1.344420
3470.000000	1.344638
3468.000000	1.344907
3466.000000	1.345387
3464.000000	1.345978
3462.000000	1.346602
3460.000000	1.346945
3458.000000	1.347108
3456.000000	1.347466
3454.000000	1.347961
3452.000000	1.348441
3450.000000	1.348631
3448.000000	1.348804
3446.000000	1.349429
3444.000000	1.350110
3442.000000	1.350682
3440.000000	1.351303
3438.000000	1.351878
3436.000000	1.352343
3434.000000	1.352850
3432.000000	1.353369
3430.000000	1.353870
3428.000000	1.354438
3426.000000	1.355057
3424.000000	1.355513
3422.000000	1.355737
3420.000000	1.355979
3418.000000	1.356294
3416.000000	1.356607
3414.000000	1.356996
3412.000000	1.357396
3410.000000	1.357717
3408.000000	1.358063
3406.000000	1.358426
3404.000000	1.358543
3402.000000	1.358512
3400.000000	1.358668
3398.000000	1.359029
3396.000000	1.359395
3394.000000	1.359601
3392.000000	1.359720
3390.000000	1.359969
3388.000000	1.360245
3386.000000	1.360490
3384.000000	1.360762
3382.000000	1.361069
3380.000000	1.361186
3378.000000	1.361058
3376.000000	1.361078
3374.000000	1.361232
3372.000000	1.361332
3370.000000	1.361464
3368.000000	1.361609
3366.000000	1.361858
3364.000000	1.362090
3362.000000	1.362251
3360.000000	1.362484
3358.000000	1.362599
3356.000000	1.362613
3354.000000	1.362604
3352.000000	1.362515
3350.000000	1.362521
3348.000000	1.362655
3346.000000	1.362780
3344.000000	1.362849
3342.000000	1.362968
3340.000000	1.363077
3338.000000	1.363093
3336.000000	1.363144
3334.000000	1.363355
3332.000000	1.363400
3330.000000	1.363247
3328.000000	1.363235
3326.000000	1.363386
3324.000000	1.363640
3322.000000	1.363816
3320.000000	1.363862
3318.000000	1.363893
3316.000000	1.363811
3314.000000	1.363883
3312.000000	1.364077
3310.000000	1.364128
3308.000000	1.364193
3306.000000	1.364284
3304.000000	1.364362
3302.000000	1.364473
3300.000000	1.364471
3298.000000	1.364489
3296.000000	1.364509
3294.000000	1.364512
3292.000000	1.364678
3290.000000	1.364951
3288.000000	1.365120
3286.000000	1.365065
3284.000000	1.364881
3282.000000	1.364918
3280.000000	1.365134
3278.000000	1.365187
3276.000000	1.365081
3274.000000	1.365044
3272.000000	1.365183
3270.000000	1.365401
3268.000000	1.365562
3266.000000	1.365680
3264.000000	1.365762
3262.000000	1.365747
3260.000000	1.365737
3258.000000	1.365791
3256.000000	1.365754
3254.000000	1.365818
3252.000000	1.365982
3250.000000	1.366102
3248.000000	1.366181
3246.000000	1.366206
3244.000000	1.366316
3242.000000	1.366464
3240.000000	1.366521
3238.000000	1.366569
3236.000000	1.366588
3234.000000	1.366564
3232.000000	1.366701
3230.000000	1.366932
3228.000000	1.367089
3226.000000	1.367151
3224.000000	1.367240
3222.000000	1.367400
3220.000000	1.367497
3218.000000	1.367413
3216.000000	1.367317
3214.000000	1.367508
3212.000000	1.367674
3210.000000	1.367614
3208.000000	1.367567
3206.000000	1.367602
3204.000000	1.367708
3202.000000	1.367839
3200.000000	1.367863
3198.000000	1.367888
3196.000000	1.368069
3194.000000	1.368211
3192.000000	1.368242
3190.000000	1.368162
3188.000000	1.368063
3186.000000	1.368123
3184.000000	1.368206
3182.000000	1.368153
3180.000000	1.368035
3178.000000	1.368119
3176.000000	1.368302
3174.000000	1.368423
3172.000000	1.368416
3170.000000	1.368259
3168.000000	1.368221
3166.000000	1.368546
3164.000000	1.368797
3162.000000	1.368758
3160.000000	1.368815
3158.000000	1.368924
3156.000000	1.368913
3154.000000	1.368894
3152.000000	1.368943
3150.000000	1.369121
3148.000000	1.369336
3146.000000	1.369335
3144.000000	1.369268
3142.000000	1.369368
3140.000000	1.369452
3138.000000	1.369450
3136.000000	1.369457
3134.000000	1.369530
3132.000000	1.369753
3130.000000	1.369940
3128.000000	1.369915
3126.000000	1.369784
3124.000000	1.369770
3122.000000	1.369857
3120.000000	1.369912
3118.000000	1.369882
3116.000000	1.369939
3114.000000	1.370068
3112.000000	1.370087
3110.000000	1.370020
3108.000000	1.370030
3106.000000	1.370070
3104.000000	1.369982
3102.000000	1.369965
3100.000000	1.370044
3098.000000	1.370043
3096.000000	1.369994
3094.000000	1.370044
3092.000000	1.370088
3090.000000	1.370071
3088.000000	1.369997
3086.000000	1.369847
3084.000000	1.369783
3082.000000	1.369759
3080.000000	1.369564
3078.000000	1.369499
3076.000000	1.369592
3074.000000	1.369544
3072.000000	1.369313
3070.000000	1.369128
3068.000000	1.369074
3066.000000	1.369079
3064.000000	1.369088
3062.000000	1.369109
3060.000000	1.369034
3058.000000	1.368853
3056.000000	1.368759
3054.000000	1.368846
3052.000000	1.368903
3050.000000	1.368803
3048.000000	1.368679
3046.000000	1.368548
3044.000000	1.368468
3042.000000	1.368408
3040.000000	1.368305
3038.000000	1.368303
3036.000000	1.368327
3034.000000	1.368264
3032.000000	1.368154
3030.000000	1.368148
3028.000000	1.368073
3026.000000	1.367920
3024.000000	1.367792
3022.000000	1.367812
3020.000000	1.368010
3018.000000	1.368231
3016.000000	1.368457
3014.000000	1.368659
3012.000000	1.368789
3010.000000	1.368705
3008.000000	1.368434
3006.000000	1.368205
3004.000000	1.368131
3002.000000	1.368111
3000.000000	1.367938
2998.000000	1.367807
2996.000000	1.367687
2994.000000	1.367513
2992.000000	1.367499
2990.000000	1.367546
2988.000000	1.367527
2986.000000	1.367483
2984.000000	1.367423
2982.000000	1.367247
2980.000000	1.367110
2978.000000	1.367111
2976.000000	1.366983
2974.000000	1.366762
2972.000000	1.366777
2970.000000	1.366978
2968.000000	1.367170
2966.000000	1.367571
2964.000000	1.368437
2962.000000	1.369334
2960.000000	1.369796
2958.000000	1.369913
2956.000000	1.369655
2954.000000	1.369059
2952.000000	1.368451
2950.000000	1.367817
2948.000000	1.367246
2946.000000	1.366786
2944.000000	1.366273
2942.000000	1.365772
2940.000000	1.365431
2938.000000	1.365318
2936.000000	1.365456
2934.000000	1.365626
2932.000000	1.365724
2930.000000	1.365765
2928.000000	1.366035
2926.000000	1.366760
2924.000000	1.367881
2922.000000	1.369027
2920.000000	1.369710
2918.000000	1.369875
2916.000000	1.369696
2914.000000	1.369362
2912.000000	1.369034
2910.000000	1.368599
2908.000000	1.368169
2906.000000	1.367931
2904.000000	1.367781
2902.000000	1.367562
2900.000000	1.367421
2898.000000	1.367555
2896.000000	1.367597
2894.000000	1.367369
2892.000000	1.367210
2890.000000	1.367151
2888.000000	1.366984
2886.000000	1.366731
2884.000000	1.366624
2882.000000	1.366522
2880.000000	1.366232
2878.000000	1.365892
2876.000000	1.365642
2874.000000	1.365442
2872.000000	1.365171
2870.000000	1.364868
2868.000000	1.364486
2866.000000	1.364140
2864.000000	1.364231
2862.000000	1.364966
2860.000000	1.365833
2858.000000	1.366447
2856.000000	1.366856
2854.000000	1.367051
2852.000000	1.367164
2850.000000	1.367445
2848.000000	1.367803
2846.000000	1.367783
2844.000000	1.367314
2842.000000	1.366875
2840.000000	1.366619
2838.000000	1.366425
2836.000000	1.366354
2834.000000	1.366277
2832.000000	1.366107
2830.000000	1.366008
2828.000000	1.366052
2826.000000	1.366016
2824.000000	1.365888
2822.000000	1.365776
2820.000000	1.365687
2818.000000	1.365684
2816.000000	1.365669
2814.000000	1.365684
2812.000000	1.365703
2810.000000	1.365670
2808.000000	1.365624
2806.000000	1.365686
2804.000000	1.365712
2802.000000	1.365524
2800.000000	1.365390
2798.000000	1.365382
2796.000000	1.365329
2794.000000	1.365332
2792.000000	1.365384
2790.000000	1.365448
2788.000000	1.365456
2786.000000	1.365383
2784.000000	1.365335
2782.000000	1.365418
2780.000000	1.365484
2778.000000	1.365333
2776.000000	1.365284
2774.000000	1.365337
2772.000000	1.365298
2770.000000	1.365265
2768.000000	1.365271
2766.000000	1.365258
2764.000000	1.365267
2762.000000	1.365267
2760.000000	1.365168
2758.000000	1.365155
2756.000000	1.365232
2754.000000	1.365208
2752.000000	1.365192
2750.000000	1.365319
2748.000000	1.365399
2746.000000	1.365379
2744.000000	1.365293
2742.000000	1.365142
2740.000000	1.365177
2738.000000	1.365397
2736.000000	1.365470
2734.000000	1.365414
2732.000000	1.365422
2730.000000	1.365421
2728.000000	1.365465
2726.000000	1.365457
2724.000000	1.365356
2722.000000	1.365401
2720.000000	1.365487
2718.000000	1.365539
2716.000000	1.365576
2714.000000	1.365616
2712.000000	1.365762
2710.000000	1.365853
2708.000000	1.365948
2706.000000	1.366088
2704.000000	1.366138
2702.000000	1.366124
2700.000000	1.366219
2698.000000	1.366369
2696.000000	1.366461
2694.000000	1.366545
2692.000000	1.366681
2690.000000	1.366828
2688.000000	1.366971
2686.000000	1.366942
2684.000000	1.366823
2682.000000	1.366918
2680.000000	1.367096
2678.000000	1.367136
2676.000000	1.367142
2674.000000	1.367255
2672.000000	1.367407
2670.000000	1.367501
2668.000000	1.367564
2666.000000	1.367715
2664.000000	1.367894
2662.000000	1.367955
2660.000000	1.367950
2658.000000	1.367991
2656.000000	1.368024
2654.000000	1.368113
2652.000000	1.368211
2650.000000	1.368317
2648.000000	1.368361
2646.000000	1.368364
2644.000000	1.368483
2642.000000	1.368614
2640.000000	1.368747
2638.000000	1.368816
2636.000000	1.368770
2634.000000	1.368812
2632.000000	1.368847
2630.000000	1.368790
2628.000000	1.368801
2626.000000	1.368869
2624.000000	1.368875
2622.000000	1.368865
2620.000000	1.368901
2618.000000	1.369005
2616.000000	1.369068
2614.000000	1.369103
2612.000000	1.369224
2610.000000	1.369274
2608.000000	1.369233
2606.000000	1.369224
2604.000000	1.369183
2602.000000	1.369157
2600.000000	1.369206
2598.000000	1.369224
2596.000000	1.369252
2594.000000	1.369281
2592.000000	1.369407
2590.000000	1.369457
2588.000000	1.369417
2586.000000	1.369480
2584.000000	1.369587
2582.000000	1.369669
2580.000000	1.369748
2578.000000	1.369771
2576.000000	1.369710
2574.000000	1.369622
2572.000000	1.369692
2570.000000	1.369738
2568.000000	1.369657
2566.000000	1.369580
2564.000000	1.369536
2562.000000	1.369541
2560.000000	1.369580
2558.000000	1.369645
2556.000000	1.369715
2554.000000	1.369758
2552.000000	1.369727
2550.000000	1.369724
2548.000000	1.369761
2546.000000	1.369781
2544.000000	1.369827
2542.000000	1.369824
2540.000000	1.369783
2538.000000	1.369754
2536.000000	1.369741
2534.000000	1.369706
2532.000000	1.369707
2530.000000	1.369788
2528.000000	1.369828
2526.000000	1.369810
2524.000000	1.369796
2522.000000	1.369783
2520.000000	1.369730
2518.000000	1.369714
2516.000000	1.369732
2514.000000	1.369644
2512.000000	1.369568
2510.000000	1.369635
2508.000000	1.369683
2506.000000	1.369624
2504.000000	1.369612
2502.000000	1.369660
2500.000000	1.369759
2498.000000	1.369777
2496.000000	1.369760
2494.000000	1.369716
2492.000000	1.369702
2490.000000	1.369713
2488.000000	1.369716
2486.000000	1.369760
2484.000000	1.369821
2482.000000	1.369846
2480.000000	1.369852
2478.000000	1.369796
2476.000000	1.369723
2474.000000	1.369663
2472.000000	1.369705
2470.000000	1.369706
2468.000000	1.369608
2466.000000	1.369704
2464.000000	1.369884
2462.000000	1.369871
2460.000000	1.369822
2458.000000	1.369818
2456.000000	1.369831
2454.000000	1.369758
2452.000000	1.369785
2450.000000	1.369891
2448.000000	1.369873
2446.000000	1.369757
2444.000000	1.369779
2442.000000	1.369861
2440.000000	1.369888
2438.000000	1.369884
2436.000000	1.369871
2434.000000	1.369861
2432.000000	1.369811
2430.000000	1.369758
2428.000000	1.369788
2426.000000	1.369899
2424.000000	1.369943
2422.000000	1.369927
2420.000000	1.369989
2418.000000	1.370088
2416.000000	1.370047
2414.000000	1.370002
2412.000000	1.370071
2410.000000	1.370055
2408.000000	1.369990
2406.000000	1.369926
2404.000000	1.369883
2402.000000	1.369780
2400.000000	1.369723
2398.000000	1.369757
2396.000000	1.369739
2394.000000	1.369693
2392.000000	1.369679
2390.000000	1.369726
2388.000000	1.369769
2386.000000	1.369704
2384.000000	1.369592
2382.000000	1.369437
2380.000000	1.369225
2378.000000	1.368875
2376.000000	1.368532
2374.000000	1.368234
2372.000000	1.367909
2370.000000	1.367558
2368.000000	1.367330
2366.000000	1.367205
2364.000000	1.367213
2362.000000	1.367342
2360.000000	1.367602
2358.000000	1.367916
2356.000000	1.368305
2354.000000	1.368848
2352.000000	1.369407
2350.000000	1.369346
2348.000000	1.368575
2346.000000	1.368016
2344.000000	1.368063
2342.000000	1.368463
2340.000000	1.369200
2338.000000	1.369662
2336.000000	1.369407
2334.000000	1.369071
2332.000000	1.368806
2330.000000	1.368666
2328.000000	1.368687
2326.000000	1.368785
2324.000000	1.369006
2322.000000	1.369211
2320.000000	1.369339
2318.000000	1.369302
2316.000000	1.369340
2314.000000	1.369449
2312.000000	1.369642
2310.000000	1.369791
2308.000000	1.369685
2306.000000	1.369661
2304.000000	1.369802
2302.000000	1.369788
2300.000000	1.369806
2298.000000	1.369854
2296.000000	1.369858
2294.000000	1.369838
2292.000000	1.369882
2290.000000	1.369942
2288.000000	1.369972
2286.000000	1.369974
2284.000000	1.370000
2282.000000	1.370023
2280.000000	1.370006
2278.000000	1.369897
2276.000000	1.369842
2274.000000	1.369865
2272.000000	1.369850
2270.000000	1.369774
2268.000000	1.369853
2266.000000	1.370000
2264.000000	1.369912
2262.000000	1.369804
2260.000000	1.369791
2258.000000	1.369865
2256.000000	1.369983
2254.000000	1.369874
2252.000000	1.369733
2250.000000	1.369600
2248.000000	1.369607
2246.000000	1.369665
2244.000000	1.369566
2242.000000	1.369488
2240.000000	1.369504
2238.000000	1.369531
2236.000000	1.369548
2234.000000	1.369483
2232.000000	1.369450
2230.000000	1.369400
2228.000000	1.369280
2226.000000	1.369124
2224.000000	1.369080
2222.000000	1.369000
2220.000000	1.368976
2218.000000	1.369060
2216.000000	1.369111
2214.000000	1.369008
2212.000000	1.368886
2210.000000	1.368757
2208.000000	1.368683
2206.000000	1.368657
2204.000000	1.368640
2202.000000	1.368760
2200.000000	1.368764
2198.000000	1.368635
2196.000000	1.368506
2194.000000	1.368453
2192.000000	1.368481
2190.000000	1.368433
2188.000000	1.368459
2186.000000	1.368492
2184.000000	1.368486
2182.000000	1.368387
2180.000000	1.368309
2178.000000	1.368260
2176.000000	1.368098
2174.000000	1.367946
2172.000000	1.367845
2170.000000	1.367769
2168.000000	1.367855
2166.000000	1.367818
2164.000000	1.367847
2162.000000	1.367894
2160.000000	1.367819
2158.000000	1.367644
2156.000000	1.367467
2154.000000	1.367310
2152.000000	1.367352
2150.000000	1.367427
2148.000000	1.367472
2146.000000	1.367418
2144.000000	1.367286
2142.000000	1.367278
2140.000000	1.367246
2138.000000	1.367155
2136.000000	1.367173
2134.000000	1.367253
2132.000000	1.367120
2130.000000	1.366893
2128.000000	1.366977
2126.000000	1.367209
2124.000000	1.367162
2122.000000	1.366905
2120.000000	1.366855
2118.000000	1.366979
2116.000000	1.366931
2114.000000	1.366774
2112.000000	1.366786
2110.000000	1.366804
2108.000000	1.366770
2106.000000	1.366715
2104.000000	1.366700
2102.000000	1.366774
2100.000000	1.366585
2098.000000	1.366472
2096.000000	1.366648
2094.000000	1.366709
2092.000000	1.366703
2090.000000	1.366684
2088.000000	1.366549
2086.000000	1.366390
2084.000000	1.366484
2082.000000	1.366456
2080.000000	1.366337
2078.000000	1.366239
2076.000000	1.366148
2074.000000	1.366094
2072.000000	1.366223
2070.000000	1.366298
2068.000000	1.366245
2066.000000	1.366191
2064.000000	1.366215
2062.000000	1.366137
2060.000000	1.366105
2058.000000	1.366040
2056.000000	1.365997
2054.000000	1.366047
2052.000000	1.366030
2050.000000	1.365986
2048.000000	1.365985
2046.000000	1.365839
2044.000000	1.365625
2042.000000	1.365665
2040.000000	1.365873
2038.000000	1.365852
2036.000000	1.365713
2034.000000	1.365728
2032.000000	1.365592
2030.000000	1.365419
2028.000000	1.365616
2026.000000	1.365738
2024.000000	1.365706
2022.000000	1.365601
2020.000000	1.365449
2018.000000	1.365392
2016.000000	1.365559
2014.000000	1.365640
2012.000000	1.365616
2010.000000	1.365439
2008.000000	1.365367
2006.000000	1.365485
2004.000000	1.365493
2002.000000	1.365408
2000.000000	1.365427
1998.000000	1.365514
1996.000000	1.365537
1994.000000	1.365301
1992.000000	1.365238
1990.000000	1.365396
1988.000000	1.365358
1986.000000	1.365287
1984.000000	1.365292
1982.000000	1.365310
1980.000000	1.365300
1978.000000	1.365287
1976.000000	1.365275
1974.000000	1.365328
1972.000000	1.365390
1970.000000	1.365183
1968.000000	1.364994
1966.000000	1.365108
1964.000000	1.365226
1962.000000	1.365231
1960.000000	1.365160
1958.000000	1.365384
1956.000000	1.365538
1954.000000	1.365435
1952.000000	1.365311
1950.000000	1.365270
1948.000000	1.365295
1946.000000	1.365136
1944.000000	1.364857
1942.000000	1.365058
1940.000000	1.365464
1938.000000	1.365432
1936.000000	1.365452
1934.000000	1.365401
1932.000000	1.365363
1930.000000	1.365398
1928.000000	1.365457
1926.000000	1.365363
1924.000000	1.365174
1922.000000	1.365257
1920.000000	1.364847
1918.000000	1.364814
1916.000000	1.365749
1914.000000	1.365715
1912.000000	1.365505
1910.000000	1.365422
1908.000000	1.365614
1906.000000	1.365742
1904.000000	1.365889
1902.000000	1.365933
1900.000000	1.365922
1898.000000	1.365819
1896.000000	1.365793
1894.000000	1.365899
1892.000000	1.365691
1890.000000	1.365283
1888.000000	1.365880
1886.000000	1.366166
1884.000000	1.366193
1882.000000	1.366124
1880.000000	1.366071
1878.000000	1.366016
1876.000000	1.366060
1874.000000	1.366031
1872.000000	1.365290
1870.000000	1.364148
1868.000000	1.365023
1866.000000	1.366078
1864.000000	1.366153
1862.000000	1.366031
1860.000000	1.366110
1858.000000	1.366116
1856.000000	1.366199
1854.000000	1.366064
1852.000000	1.366138
1850.000000	1.366039
1848.000000	1.365464
1846.000000	1.363532
1844.000000	1.363751
1842.000000	1.366071
1840.000000	1.366154
1838.000000	1.365785
1836.000000	1.366029
1834.000000	1.365958
1832.000000	1.364877
1830.000000	1.364647
1828.000000	1.365539
1826.000000	1.365261
1824.000000	1.365974
1822.000000	1.366491
1820.000000	1.366350
1818.000000	1.366232
1816.000000	1.366339
1814.000000	1.366168
1812.000000	1.365892
1810.000000	1.366065
1808.000000	1.366449
1806.000000	1.366399
1804.000000	1.365927
1802.000000	1.365151
1800.000000	1.365358
1798.000000	1.365830
1796.000000	1.365258
1794.000000	1.363256
1792.000000	1.363995
1790.000000	1.366376
1788.000000	1.366516
1786.000000	1.365668
1784.000000	1.365912
1782.000000	1.365796
1780.000000	1.365884
1778.000000	1.366184
1776.000000	1.364981
1774.000000	1.362171
1772.000000	1.362882
1770.000000	1.365026
1768.000000	1.365466
1766.000000	1.366625
1764.000000	1.365508
1762.000000	1.364926
1760.000000	1.366149
1758.000000	1.365833
1756.000000	1.366195
1754.000000	1.365427
1752.000000	1.363275
1750.000000	1.364548
1748.000000	1.365928
1746.000000	1.366185
1744.000000	1.366013
1742.000000	1.365229
1740.000000	1.364972
1738.000000	1.365646
1736.000000	1.361126
1734.000000	1.360576
1732.000000	1.366380
1730.000000	1.367542
1728.000000	1.367824
1726.000000	1.367874
1724.000000	1.367774
1722.000000	1.367033
1720.000000	1.363042
1718.000000	1.360357
1716.000000	1.364483
1714.000000	1.367386
1712.000000	1.368199
1710.000000	1.367532
1708.000000	1.366515
1706.000000	1.365834
1704.000000	1.365731
1702.000000	1.360327
1700.000000	1.360431
1698.000000	1.362580
1696.000000	1.362289
1694.000000	1.368155
1692.000000	1.369032
1690.000000	1.367951
1688.000000	1.365783
1686.000000	1.359814
1684.000000	1.362099
1682.000000	1.368638
1680.000000	1.368958
1678.000000	1.367263
1676.000000	1.365245
1674.000000	1.367231
1672.000000	1.366777
1670.000000	1.365775
1668.000000	1.368410
1666.000000	1.369185
1664.000000	1.367484
1662.000000	1.368427
1660.000000	1.369846
1658.000000	1.368955
1656.000000	1.362607
1654.000000	1.355280
1652.000000	1.363219
1650.000000	1.369172
1648.000000	1.365063
1646.000000	1.366104
1644.000000	1.370160
1642.000000	1.370491
1640.000000	1.369310
1638.000000	1.365709
1636.000000	1.364027
1634.000000	1.369132
1632.000000	1.370959
1630.000000	1.369599
1628.000000	1.369311
1626.000000	1.368823
1624.000000	1.367748
1622.000000	1.369230
1620.000000	1.368557
1618.000000	1.364634
1616.000000	1.366856
1614.000000	1.370678
1612.000000	1.370166
1610.000000	1.370163
1608.000000	1.370880
1606.000000	1.371774
1604.000000	1.372003
1602.000000	1.372133
1600.000000	1.372124
1598.000000	1.372115
1596.000000	1.371909
1594.000000	1.371984
1592.000000	1.371987
1590.000000	1.372023
1588.000000	1.372063
1586.000000	1.372079
1584.000000	1.371944
1582.000000	1.371978
1580.000000	1.370966
1578.000000	1.366591
1576.000000	1.366762
1574.000000	1.371881
1572.000000	1.370411
1570.000000	1.368927
1568.000000	1.370767
1566.000000	1.371149
1564.000000	1.370128
1562.000000	1.364399
1560.000000	1.357988
1558.000000	1.364029
1556.000000	1.369292
1554.000000	1.370174
1552.000000	1.371482
1550.000000	1.371544
1548.000000	1.371261
1546.000000	1.369176
1544.000000	1.366515
1542.000000	1.362444
1540.000000	1.362330
1538.000000	1.369567
1536.000000	1.371146
1534.000000	1.369128
1532.000000	1.371017
1530.000000	1.371254
1528.000000	1.369641
1526.000000	1.368752
1524.000000	1.366912
1522.000000	1.364559
1520.000000	1.367585
1518.000000	1.368892
1516.000000	1.369475
1514.000000	1.370329
1512.000000	1.369991
1510.000000	1.367210
1508.000000	1.361507
1506.000000	1.363795
1504.000000	1.370022
1502.000000	1.369055
1500.000000	1.365323
1498.000000	1.362650
1496.000000	1.365617
1494.000000	1.371645
1492.000000	1.372815
1490.000000	1.372652
1488.000000	1.373406
1486.000000	1.373712
1484.000000	1.373492
1482.000000	1.372751
1480.000000	1.372336
1478.000000	1.370808
1476.000000	1.368834
1474.000000	1.366733
1472.000000	1.368410
1470.000000	1.371485
1468.000000	1.370903
1466.000000	1.369195
1464.000000	1.370098
1462.000000	1.370613
1460.000000	1.366725
1458.000000	1.362057
1456.000000	1.365546
1454.000000	1.370101
1452.000000	1.370754
1450.000000	1.371844
1448.000000	1.372503
1446.000000	1.372845
1444.000000	1.372149
1442.000000	1.371632
1440.000000	1.370297
1438.000000	1.367483
1436.000000	1.368684
1434.000000	1.371328
1432.000000	1.370603
1430.000000	1.370516
1428.000000	1.371221
1426.000000	1.370970
1424.000000	1.370355
1422.000000	1.369053
1420.000000	1.366947
1418.000000	1.369192
1416.000000	1.370893
1414.000000	1.371000
1412.000000	1.370847
1410.000000	1.370498
1408.000000	1.369725
1406.000000	1.369530
1404.000000	1.370668
1402.000000	1.371467
1400.000000	1.370917
1398.000000	1.370929
1396.000000	1.370032
1394.000000	1.370463
1392.000000	1.371443
1390.000000	1.370400
1388.000000	1.369064
1386.000000	1.370062
1384.000000	1.371155
1382.000000	1.371405
1380.000000	1.370936
1378.000000	1.370574
1376.000000	1.370030
1374.000000	1.370038
1372.000000	1.370564
1370.000000	1.370410
1368.000000	1.370521
1366.000000	1.370273
1364.000000	1.369304
1362.000000	1.369518
1360.000000	1.370192
1358.000000	1.370235
1356.000000	1.370022
1354.000000	1.369998
1352.000000	1.369987
1350.000000	1.370062
1348.000000	1.370119
1346.000000	1.370032
1344.000000	1.369784
1342.000000	1.369250
1340.000000	1.368993
1338.000000	1.369499
1336.000000	1.369862
1334.000000	1.369916
1332.000000	1.369737
1330.000000	1.369723
1328.000000	1.369656
1326.000000	1.369492
1324.000000	1.369293
1322.000000	1.369149
1320.000000	1.368950
1318.000000	1.368835
1316.000000	1.368826
1314.000000	1.368911
1312.000000	1.369044
1310.000000	1.369061
1308.000000	1.368794
1306.000000	1.368536
1304.000000	1.368426
1302.000000	1.368550
1300.000000	1.368645
1298.000000	1.368570
1296.000000	1.368343
1294.000000	1.368207
1292.000000	1.368201
1290.000000	1.368141
1288.000000	1.368022
1286.000000	1.368148
1284.000000	1.368152
1282.000000	1.368103
1280.000000	1.368144
1278.000000	1.368258
1276.000000	1.368265
1274.000000	1.368257
1272.000000	1.368097
1270.000000	1.368335
1268.000000	1.369007
1266.000000	1.370267
1264.000000	1.372309
1262.000000	1.375020
1260.000000	1.377182
1258.000000	1.378050
1256.000000	1.377157
1254.000000	1.375294
1252.000000	1.373326
1250.000000	1.372177
1248.000000	1.371851
1246.000000	1.371740
1244.000000	1.371629
1242.000000	1.371803
1240.000000	1.372056
1238.000000	1.372211
1236.000000	1.372284
1234.000000	1.372723
1232.000000	1.373127
1230.000000	1.373483
1228.000000	1.373602
1226.000000	1.373631
1224.000000	1.373950
1222.000000	1.374455
1220.000000	1.374704
1218.000000	1.374984
1216.000000	1.375243
1214.000000	1.375447
1212.000000	1.375583
1210.000000	1.375931
1208.000000	1.376457
1206.000000	1.376861
1204.000000	1.377000
1202.000000	1.377115
1200.000000	1.377369
1198.000000	1.377660
1196.000000	1.377918
1194.000000	1.378393
1192.000000	1.378694
1190.000000	1.378679
1188.000000	1.379050
1186.000000	1.379806
1184.000000	1.379641
1182.000000	1.379475
1180.000000	1.380807
1178.000000	1.382070
1176.000000	1.381819
1174.000000	1.381642
1172.000000	1.382031
1170.000000	1.382620
1168.000000	1.382721
1166.000000	1.382954
1164.000000	1.383626
1162.000000	1.384263
1160.000000	1.384498
1158.000000	1.384905
1156.000000	1.385272
1154.000000	1.385651
1152.000000	1.386022
1150.000000	1.386343
1148.000000	1.386521
1146.000000	1.386777
1144.000000	1.387183
1142.000000	1.387918
1140.000000	1.388648
1138.000000	1.388899
1136.000000	1.388500
1134.000000	1.388464
1132.000000	1.388709
1130.000000	1.389133
1128.000000	1.389712
1126.000000	1.390078
1124.000000	1.390148
1122.000000	1.390349
1120.000000	1.390561
1118.000000	1.391021
1116.000000	1.391631
1114.000000	1.391731
1112.000000	1.391944
1110.000000	1.392763
1108.000000	1.393221
1106.000000	1.393663
1104.000000	1.393976
1102.000000	1.394623
1100.000000	1.395149
1098.000000	1.395797
1096.000000	1.395834
1094.000000	1.395839
1092.000000	1.395729
1090.000000	1.395685
1088.000000	1.395456
1086.000000	1.395441
1084.000000	1.395157
1082.000000	1.394461
1080.000000	1.393884
1078.000000	1.394507
1076.000000	1.394979
1074.000000	1.394752
1072.000000	1.394344
1070.000000	1.393553
1068.000000	1.392823
1066.000000	1.392984
1064.000000	1.392764
1062.000000	1.392427
1060.000000	1.391722
1058.000000	1.390512
1056.000000	1.389683
1054.000000	1.388841
1052.000000	1.388764
1050.000000	1.390345
1048.000000	1.391590
1046.000000	1.391027
1044.000000	1.389320
1042.000000	1.387558
1040.000000	1.386915
1038.000000	1.387027
1036.000000	1.386395
1034.000000	1.385737
1032.000000	1.385594
1030.000000	1.385614
1028.000000	1.384481
1026.000000	1.383251
1024.000000	1.383628
1022.000000	1.383956
1020.000000	1.382772
1018.000000	1.382266
1016.000000	1.381934
1014.000000	1.381011
1012.000000	1.379673
1010.000000	1.378005
1008.000000	1.374935
1006.000000	1.372516
1004.000000	1.370500
1002.000000	1.369778
1000.000000	1.369991
