PE IR       SUBTECH     SPECTRUM    ASCII       PEDS        4.00        
   -1
TE110A_017_80K_AFTER_90K.ASC
20/05/14
12:08:42.00
20/05/14
12:08:42.00
Administrator
TE110A.Thursday, May 14 2020, 005.
1000.000000
#HDR
-1
-1
#GR
cm-1
A
1.0
0.0
6000.000000
-2.000000
2501
8
1.316575
1.264268
#DATA
6000.000000	1.304506
5998.000000	1.304783
5996.000000	1.305039
5994.000000	1.304800
5992.000000	1.304873
5990.000000	1.305161
5988.000000	1.305089
5986.000000	1.304743
5984.000000	1.304344
5982.000000	1.304356
5980.000000	1.304951
5978.000000	1.304678
5976.000000	1.303874
5974.000000	1.303435
5972.000000	1.303468
5970.000000	1.303818
5968.000000	1.303729
5966.000000	1.303298
5964.000000	1.303175
5962.000000	1.303622
5960.000000	1.303804
5958.000000	1.303858
5956.000000	1.303594
5954.000000	1.303250
5952.000000	1.303483
5950.000000	1.304206
5948.000000	1.304843
5946.000000	1.305034
5944.000000	1.304167
5942.000000	1.303251
5940.000000	1.302935
5938.000000	1.303230
5936.000000	1.303774
5934.000000	1.303592
5932.000000	1.302925
5930.000000	1.302152
5928.000000	1.302007
5926.000000	1.302191
5924.000000	1.302273
5922.000000	1.302581
5920.000000	1.302461
5918.000000	1.302139
5916.000000	1.301876
5914.000000	1.301461
5912.000000	1.301531
5910.000000	1.301618
5908.000000	1.301800
5906.000000	1.302080
5904.000000	1.302169
5902.000000	1.301982
5900.000000	1.302151
5898.000000	1.302177
5896.000000	1.302097
5894.000000	1.301947
5892.000000	1.302199
5890.000000	1.303062
5888.000000	1.303524
5886.000000	1.302806
5884.000000	1.301645
5882.000000	1.300726
5880.000000	1.300572
5878.000000	1.300609
5876.000000	1.300657
5874.000000	1.301137
5872.000000	1.301674
5870.000000	1.301683
5868.000000	1.301199
5866.000000	1.301038
5864.000000	1.301577
5862.000000	1.302037
5860.000000	1.301670
5858.000000	1.300991
5856.000000	1.300481
5854.000000	1.300509
5852.000000	1.300770
5850.000000	1.300989
5848.000000	1.300972
5846.000000	1.300916
5844.000000	1.300623
5842.000000	1.300280
5840.000000	1.300074
5838.000000	1.300300
5836.000000	1.300753
5834.000000	1.300752
5832.000000	1.300442
5830.000000	1.300205
5828.000000	1.300000
5826.000000	1.300012
5824.000000	1.300132
5822.000000	1.300903
5820.000000	1.301448
5818.000000	1.301390
5816.000000	1.300787
5814.000000	1.300223
5812.000000	1.299893
5810.000000	1.299709
5808.000000	1.299765
5806.000000	1.299823
5804.000000	1.299775
5802.000000	1.299810
5800.000000	1.299909
5798.000000	1.300245
5796.000000	1.300426
5794.000000	1.300327
5792.000000	1.300016
5790.000000	1.299458
5788.000000	1.299477
5786.000000	1.299799
5784.000000	1.299983
5782.000000	1.299953
5780.000000	1.299861
5778.000000	1.299931
5776.000000	1.299884
5774.000000	1.299949
5772.000000	1.299915
5770.000000	1.299357
5768.000000	1.298749
5766.000000	1.298624
5764.000000	1.299235
5762.000000	1.299722
5760.000000	1.299663
5758.000000	1.299461
5756.000000	1.299415
5754.000000	1.299588
5752.000000	1.299691
5750.000000	1.299278
5748.000000	1.298948
5746.000000	1.298818
5744.000000	1.298894
5742.000000	1.298918
5740.000000	1.298698
5738.000000	1.298558
5736.000000	1.298624
5734.000000	1.298679
5732.000000	1.298785
5730.000000	1.298818
5728.000000	1.298567
5726.000000	1.298387
5724.000000	1.298303
5722.000000	1.298440
5720.000000	1.298767
5718.000000	1.298768
5716.000000	1.298709
5714.000000	1.298748
5712.000000	1.298940
5710.000000	1.298753
5708.000000	1.298411
5706.000000	1.298173
5704.000000	1.298498
5702.000000	1.298601
5700.000000	1.298149
5698.000000	1.297700
5696.000000	1.297400
5694.000000	1.297599
5692.000000	1.297591
5690.000000	1.297518
5688.000000	1.297725
5686.000000	1.298098
5684.000000	1.298419
5682.000000	1.298147
5680.000000	1.297531
5678.000000	1.297110
5676.000000	1.297164
5674.000000	1.297180
5672.000000	1.297042
5670.000000	1.296791
5668.000000	1.296904
5666.000000	1.297169
5664.000000	1.297294
5662.000000	1.297420
5660.000000	1.297316
5658.000000	1.297254
5656.000000	1.297392
5654.000000	1.297899
5652.000000	1.297942
5650.000000	1.297800
5648.000000	1.297602
5646.000000	1.297455
5644.000000	1.297205
5642.000000	1.296740
5640.000000	1.296673
5638.000000	1.296606
5636.000000	1.296666
5634.000000	1.296568
5632.000000	1.296485
5630.000000	1.296430
5628.000000	1.296305
5626.000000	1.296257
5624.000000	1.296139
5622.000000	1.296125
5620.000000	1.296132
5618.000000	1.296162
5616.000000	1.296614
5614.000000	1.297099
5612.000000	1.297222
5610.000000	1.296660
5608.000000	1.296005
5606.000000	1.295840
5604.000000	1.296054
5602.000000	1.296182
5600.000000	1.296061
5598.000000	1.295991
5596.000000	1.295953
5594.000000	1.296074
5592.000000	1.296058
5590.000000	1.296010
5588.000000	1.295824
5586.000000	1.295786
5584.000000	1.295960
5582.000000	1.296049
5580.000000	1.296072
5578.000000	1.295874
5576.000000	1.295763
5574.000000	1.295725
5572.000000	1.295684
5570.000000	1.295699
5568.000000	1.295400
5566.000000	1.295146
5564.000000	1.294698
5562.000000	1.294338
5560.000000	1.294164
5558.000000	1.294362
5556.000000	1.294814
5554.000000	1.295051
5552.000000	1.295071
5550.000000	1.294846
5548.000000	1.294748
5546.000000	1.294698
5544.000000	1.294469
5542.000000	1.294386
5540.000000	1.294586
5538.000000	1.295107
5536.000000	1.295308
5534.000000	1.295165
5532.000000	1.294997
5530.000000	1.294995
5528.000000	1.295153
5526.000000	1.295012
5524.000000	1.294764
5522.000000	1.294665
5520.000000	1.294860
5518.000000	1.294957
5516.000000	1.294906
5514.000000	1.294969
5512.000000	1.294881
5510.000000	1.294352
5508.000000	1.293987
5506.000000	1.294194
5504.000000	1.294877
5502.000000	1.294889
5500.000000	1.294396
5498.000000	1.293719
5496.000000	1.293297
5494.000000	1.293390
5492.000000	1.293733
5490.000000	1.294011
5488.000000	1.293965
5486.000000	1.293722
5484.000000	1.293745
5482.000000	1.293837
5480.000000	1.293613
5478.000000	1.293255
5476.000000	1.293342
5474.000000	1.293789
5472.000000	1.293939
5470.000000	1.293632
5468.000000	1.293623
5466.000000	1.293826
5464.000000	1.293689
5462.000000	1.293486
5460.000000	1.293671
5458.000000	1.293858
5456.000000	1.293804
5454.000000	1.293806
5452.000000	1.293806
5450.000000	1.293678
5448.000000	1.293207
5446.000000	1.293166
5444.000000	1.293344
5442.000000	1.293556
5440.000000	1.293608
5438.000000	1.293338
5436.000000	1.292976
5434.000000	1.292819
5432.000000	1.292695
5430.000000	1.292782
5428.000000	1.292992
5426.000000	1.293207
5424.000000	1.293285
5422.000000	1.293456
5420.000000	1.293595
5418.000000	1.293265
5416.000000	1.292615
5414.000000	1.292311
5412.000000	1.292469
5410.000000	1.292848
5408.000000	1.293180
5406.000000	1.292945
5404.000000	1.292511
5402.000000	1.292417
5400.000000	1.292694
5398.000000	1.292616
5396.000000	1.292278
5394.000000	1.292323
5392.000000	1.292504
5390.000000	1.292391
5388.000000	1.292206
5386.000000	1.292293
5384.000000	1.292465
5382.000000	1.292126
5380.000000	1.291492
5378.000000	1.291562
5376.000000	1.292008
5374.000000	1.292322
5372.000000	1.292187
5370.000000	1.292136
5368.000000	1.292346
5366.000000	1.292353
5364.000000	1.292300
5362.000000	1.292079
5360.000000	1.291758
5358.000000	1.291379
5356.000000	1.291132
5354.000000	1.291326
5352.000000	1.291592
5350.000000	1.291696
5348.000000	1.291349
5346.000000	1.291132
5344.000000	1.291338
5342.000000	1.291249
5340.000000	1.290904
5338.000000	1.291037
5336.000000	1.291816
5334.000000	1.292231
5332.000000	1.291813
5330.000000	1.291320
5328.000000	1.291333
5326.000000	1.291658
5324.000000	1.292002
5322.000000	1.292005
5320.000000	1.291805
5318.000000	1.291759
5316.000000	1.291915
5314.000000	1.291907
5312.000000	1.291452
5310.000000	1.291006
5308.000000	1.290845
5306.000000	1.291023
5304.000000	1.291190
5302.000000	1.291207
5300.000000	1.291088
5298.000000	1.290992
5296.000000	1.291162
5294.000000	1.291214
5292.000000	1.291147
5290.000000	1.291151
5288.000000	1.291326
5286.000000	1.291257
5284.000000	1.291139
5282.000000	1.291098
5280.000000	1.291066
5278.000000	1.290962
5276.000000	1.290892
5274.000000	1.290973
5272.000000	1.290954
5270.000000	1.290878
5268.000000	1.290655
5266.000000	1.290333
5264.000000	1.290358
5262.000000	1.290851
5260.000000	1.291330
5258.000000	1.291085
5256.000000	1.290631
5254.000000	1.290573
5252.000000	1.290574
5250.000000	1.290480
5248.000000	1.290550
5246.000000	1.291089
5244.000000	1.291381
5242.000000	1.291229
5240.000000	1.291121
5238.000000	1.291170
5236.000000	1.291019
5234.000000	1.290585
5232.000000	1.290456
5230.000000	1.290448
5228.000000	1.290126
5226.000000	1.289819
5224.000000	1.289889
5222.000000	1.290108
5220.000000	1.290279
5218.000000	1.290521
5216.000000	1.290832
5214.000000	1.290786
5212.000000	1.290263
5210.000000	1.289577
5208.000000	1.289527
5206.000000	1.290160
5204.000000	1.290720
5202.000000	1.290794
5200.000000	1.290609
5198.000000	1.290558
5196.000000	1.290455
5194.000000	1.290283
5192.000000	1.290062
5190.000000	1.290093
5188.000000	1.290240
5186.000000	1.290249
5184.000000	1.290356
5182.000000	1.290451
5180.000000	1.290341
5178.000000	1.290123
5176.000000	1.290004
5174.000000	1.289948
5172.000000	1.289743
5170.000000	1.289705
5168.000000	1.289745
5166.000000	1.289948
5164.000000	1.290202
5162.000000	1.290328
5160.000000	1.290239
5158.000000	1.290058
5156.000000	1.290008
5154.000000	1.290061
5152.000000	1.290138
5150.000000	1.290054
5148.000000	1.289939
5146.000000	1.289998
5144.000000	1.289991
5142.000000	1.289911
5140.000000	1.289935
5138.000000	1.290094
5136.000000	1.290167
5134.000000	1.290049
5132.000000	1.289943
5130.000000	1.290006
5128.000000	1.290099
5126.000000	1.290000
5124.000000	1.289988
5122.000000	1.290148
5120.000000	1.290099
5118.000000	1.289750
5116.000000	1.289655
5114.000000	1.290034
5112.000000	1.290131
5110.000000	1.289858
5108.000000	1.289746
5106.000000	1.289918
5104.000000	1.289748
5102.000000	1.289557
5100.000000	1.289769
5098.000000	1.290096
5096.000000	1.290127
5094.000000	1.290107
5092.000000	1.290030
5090.000000	1.289710
5088.000000	1.289491
5086.000000	1.289537
5084.000000	1.289744
5082.000000	1.290009
5080.000000	1.290052
5078.000000	1.289799
5076.000000	1.289416
5074.000000	1.289212
5072.000000	1.289358
5070.000000	1.289575
5068.000000	1.289550
5066.000000	1.289305
5064.000000	1.289333
5062.000000	1.289542
5060.000000	1.289621
5058.000000	1.289655
5056.000000	1.289708
5054.000000	1.289740
5052.000000	1.289784
5050.000000	1.289792
5048.000000	1.289683
5046.000000	1.289589
5044.000000	1.289636
5042.000000	1.289845
5040.000000	1.289901
5038.000000	1.289820
5036.000000	1.289678
5034.000000	1.289629
5032.000000	1.289748
5030.000000	1.289842
5028.000000	1.289719
5026.000000	1.289530
5024.000000	1.289657
5022.000000	1.289929
5020.000000	1.290025
5018.000000	1.290053
5016.000000	1.290023
5014.000000	1.289953
5012.000000	1.289822
5010.000000	1.289636
5008.000000	1.289464
5006.000000	1.289377
5004.000000	1.289449
5002.000000	1.289590
5000.000000	1.289812
4998.000000	1.289788
4996.000000	1.289660
4994.000000	1.289580
4992.000000	1.289526
4990.000000	1.289432
4988.000000	1.289498
4986.000000	1.289701
4984.000000	1.289831
4982.000000	1.289718
4980.000000	1.289642
4978.000000	1.289686
4976.000000	1.289782
4974.000000	1.289719
4972.000000	1.289679
4970.000000	1.289739
4968.000000	1.289720
4966.000000	1.289712
4964.000000	1.289748
4962.000000	1.289864
4960.000000	1.289882
4958.000000	1.289747
4956.000000	1.289625
4954.000000	1.289631
4952.000000	1.289780
4950.000000	1.289854
4948.000000	1.289829
4946.000000	1.289726
4944.000000	1.289548
4942.000000	1.289425
4940.000000	1.289329
4938.000000	1.289469
4936.000000	1.289737
4934.000000	1.289878
4932.000000	1.289805
4930.000000	1.289738
4928.000000	1.289809
4926.000000	1.289789
4924.000000	1.289588
4922.000000	1.289421
4920.000000	1.289306
4918.000000	1.289225
4916.000000	1.289328
4914.000000	1.289507
4912.000000	1.289581
4910.000000	1.289623
4908.000000	1.289626
4906.000000	1.289508
4904.000000	1.289430
4902.000000	1.289484
4900.000000	1.289443
4898.000000	1.289317
4896.000000	1.289236
4894.000000	1.289229
4892.000000	1.289258
4890.000000	1.289290
4888.000000	1.289391
4886.000000	1.289429
4884.000000	1.289365
4882.000000	1.289274
4880.000000	1.289254
4878.000000	1.289209
4876.000000	1.289259
4874.000000	1.289367
4872.000000	1.289489
4870.000000	1.289560
4868.000000	1.289562
4866.000000	1.289480
4864.000000	1.289561
4862.000000	1.289690
4860.000000	1.289582
4858.000000	1.289488
4856.000000	1.289695
4854.000000	1.289856
4852.000000	1.289736
4850.000000	1.289684
4848.000000	1.289841
4846.000000	1.289912
4844.000000	1.289752
4842.000000	1.289587
4840.000000	1.289377
4838.000000	1.289221
4836.000000	1.289206
4834.000000	1.289294
4832.000000	1.289418
4830.000000	1.289619
4828.000000	1.289755
4826.000000	1.289669
4824.000000	1.289484
4822.000000	1.289189
4820.000000	1.288980
4818.000000	1.289013
4816.000000	1.289054
4814.000000	1.288955
4812.000000	1.288942
4810.000000	1.289060
4808.000000	1.289106
4806.000000	1.289087
4804.000000	1.289111
4802.000000	1.289166
4800.000000	1.289158
4798.000000	1.289039
4796.000000	1.288866
4794.000000	1.288929
4792.000000	1.289120
4790.000000	1.289048
4788.000000	1.288917
4786.000000	1.289096
4784.000000	1.289170
4782.000000	1.288925
4780.000000	1.288823
4778.000000	1.288920
4776.000000	1.288972
4774.000000	1.289041
4772.000000	1.289122
4770.000000	1.289011
4768.000000	1.288906
4766.000000	1.288989
4764.000000	1.289213
4762.000000	1.289312
4760.000000	1.289150
4758.000000	1.288825
4756.000000	1.288537
4754.000000	1.288551
4752.000000	1.288930
4750.000000	1.289379
4748.000000	1.289405
4746.000000	1.289163
4744.000000	1.289147
4742.000000	1.289148
4740.000000	1.288910
4738.000000	1.288707
4736.000000	1.288738
4734.000000	1.288801
4732.000000	1.288843
4730.000000	1.288803
4728.000000	1.288603
4726.000000	1.288524
4724.000000	1.288715
4722.000000	1.288890
4720.000000	1.288892
4718.000000	1.288823
4716.000000	1.288741
4714.000000	1.288630
4712.000000	1.288667
4710.000000	1.288772
4708.000000	1.288741
4706.000000	1.288661
4704.000000	1.288639
4702.000000	1.288595
4700.000000	1.288541
4698.000000	1.288626
4696.000000	1.288763
4694.000000	1.288727
4692.000000	1.288640
4690.000000	1.288705
4688.000000	1.288780
4686.000000	1.288659
4684.000000	1.288532
4682.000000	1.288559
4680.000000	1.288608
4678.000000	1.288589
4676.000000	1.288603
4674.000000	1.288660
4672.000000	1.288615
4670.000000	1.288504
4668.000000	1.288519
4666.000000	1.288726
4664.000000	1.288861
4662.000000	1.288834
4660.000000	1.288813
4658.000000	1.288820
4656.000000	1.288723
4654.000000	1.288722
4652.000000	1.288813
4650.000000	1.288792
4648.000000	1.288631
4646.000000	1.288612
4644.000000	1.288719
4642.000000	1.288785
4640.000000	1.288737
4638.000000	1.288703
4636.000000	1.288576
4634.000000	1.288412
4632.000000	1.288462
4630.000000	1.288674
4628.000000	1.288660
4626.000000	1.288344
4624.000000	1.288201
4622.000000	1.288545
4620.000000	1.288885
4618.000000	1.288767
4616.000000	1.288558
4614.000000	1.288550
4612.000000	1.288582
4610.000000	1.288598
4608.000000	1.288539
4606.000000	1.288416
4604.000000	1.288329
4602.000000	1.288267
4600.000000	1.288206
4598.000000	1.288275
4596.000000	1.288453
4594.000000	1.288578
4592.000000	1.288569
4590.000000	1.288536
4588.000000	1.288531
4586.000000	1.288465
4584.000000	1.288378
4582.000000	1.288338
4580.000000	1.288229
4578.000000	1.288075
4576.000000	1.288103
4574.000000	1.288394
4572.000000	1.288674
4570.000000	1.288672
4568.000000	1.288519
4566.000000	1.288445
4564.000000	1.288470
4562.000000	1.288490
4560.000000	1.288470
4558.000000	1.288381
4556.000000	1.288353
4554.000000	1.288402
4552.000000	1.288406
4550.000000	1.288345
4548.000000	1.288306
4546.000000	1.288243
4544.000000	1.288213
4542.000000	1.288310
4540.000000	1.288310
4538.000000	1.288139
4536.000000	1.288045
4534.000000	1.288069
4532.000000	1.288073
4530.000000	1.288019
4528.000000	1.287971
4526.000000	1.287994
4524.000000	1.287956
4522.000000	1.287813
4520.000000	1.287861
4518.000000	1.288118
4516.000000	1.288248
4514.000000	1.288208
4512.000000	1.288097
4510.000000	1.288010
4508.000000	1.287953
4506.000000	1.287880
4504.000000	1.287819
4502.000000	1.287894
4500.000000	1.287909
4498.000000	1.287781
4496.000000	1.287689
4494.000000	1.287755
4492.000000	1.287898
4490.000000	1.288052
4488.000000	1.288087
4486.000000	1.288035
4484.000000	1.288052
4482.000000	1.288124
4480.000000	1.288084
4478.000000	1.287996
4476.000000	1.288018
4474.000000	1.288169
4472.000000	1.288299
4470.000000	1.288252
4468.000000	1.288090
4466.000000	1.288036
4464.000000	1.288058
4462.000000	1.288096
4460.000000	1.288137
4458.000000	1.288048
4456.000000	1.287889
4454.000000	1.287857
4452.000000	1.287854
4450.000000	1.287843
4448.000000	1.287819
4446.000000	1.287708
4444.000000	1.287617
4442.000000	1.287688
4440.000000	1.287722
4438.000000	1.287647
4436.000000	1.287527
4434.000000	1.287491
4432.000000	1.287609
4430.000000	1.287802
4428.000000	1.287784
4426.000000	1.287661
4424.000000	1.287629
4422.000000	1.287685
4420.000000	1.287686
4418.000000	1.287607
4416.000000	1.287474
4414.000000	1.287451
4412.000000	1.287494
4410.000000	1.287466
4408.000000	1.287429
4406.000000	1.287515
4404.000000	1.287593
4402.000000	1.287557
4400.000000	1.287532
4398.000000	1.287619
4396.000000	1.287659
4394.000000	1.287553
4392.000000	1.287428
4390.000000	1.287448
4388.000000	1.287521
4386.000000	1.287466
4384.000000	1.287392
4382.000000	1.287458
4380.000000	1.287492
4378.000000	1.287344
4376.000000	1.287169
4374.000000	1.287175
4372.000000	1.287337
4370.000000	1.287504
4368.000000	1.287460
4366.000000	1.287180
4364.000000	1.287013
4362.000000	1.287180
4360.000000	1.287288
4358.000000	1.287283
4356.000000	1.287383
4354.000000	1.287441
4352.000000	1.287277
4350.000000	1.287276
4348.000000	1.287462
4346.000000	1.287463
4344.000000	1.287243
4342.000000	1.287119
4340.000000	1.287082
4338.000000	1.287059
4336.000000	1.287083
4334.000000	1.287176
4332.000000	1.287180
4330.000000	1.287149
4328.000000	1.287203
4326.000000	1.287191
4324.000000	1.287002
4322.000000	1.286772
4320.000000	1.286704
4318.000000	1.286943
4316.000000	1.287020
4314.000000	1.286694
4312.000000	1.286530
4310.000000	1.286720
4308.000000	1.286858
4306.000000	1.286922
4304.000000	1.286949
4302.000000	1.286911
4300.000000	1.286858
4298.000000	1.286830
4296.000000	1.286774
4294.000000	1.286662
4292.000000	1.286553
4290.000000	1.286544
4288.000000	1.286586
4286.000000	1.286601
4284.000000	1.286611
4282.000000	1.286625
4280.000000	1.286607
4278.000000	1.286519
4276.000000	1.286453
4274.000000	1.286536
4272.000000	1.286689
4270.000000	1.286682
4268.000000	1.286457
4266.000000	1.286222
4264.000000	1.286151
4262.000000	1.286280
4260.000000	1.286506
4258.000000	1.286555
4256.000000	1.286397
4254.000000	1.286283
4252.000000	1.286180
4250.000000	1.286062
4248.000000	1.286062
4246.000000	1.286161
4244.000000	1.286270
4242.000000	1.286248
4240.000000	1.286162
4238.000000	1.286126
4236.000000	1.285962
4234.000000	1.285739
4232.000000	1.285791
4230.000000	1.285964
4228.000000	1.285955
4226.000000	1.285766
4224.000000	1.285676
4222.000000	1.285726
4220.000000	1.285750
4218.000000	1.285793
4216.000000	1.285829
4214.000000	1.285765
4212.000000	1.285777
4210.000000	1.285788
4208.000000	1.285652
4206.000000	1.285576
4204.000000	1.285585
4202.000000	1.285628
4200.000000	1.285706
4198.000000	1.285638
4196.000000	1.285378
4194.000000	1.285297
4192.000000	1.285433
4190.000000	1.285453
4188.000000	1.285257
4186.000000	1.285174
4184.000000	1.285321
4182.000000	1.285475
4180.000000	1.285453
4178.000000	1.285273
4176.000000	1.285064
4174.000000	1.285031
4172.000000	1.285103
4170.000000	1.285145
4168.000000	1.285157
4166.000000	1.285195
4164.000000	1.285151
4162.000000	1.284953
4160.000000	1.284787
4158.000000	1.284818
4156.000000	1.284830
4154.000000	1.284813
4152.000000	1.284900
4150.000000	1.284950
4148.000000	1.284797
4146.000000	1.284691
4144.000000	1.284657
4142.000000	1.284579
4140.000000	1.284517
4138.000000	1.284535
4136.000000	1.284500
4134.000000	1.284479
4132.000000	1.284530
4130.000000	1.284488
4128.000000	1.284322
4126.000000	1.284268
4124.000000	1.284302
4122.000000	1.284394
4120.000000	1.284372
4118.000000	1.284161
4116.000000	1.284027
4114.000000	1.284133
4112.000000	1.284230
4110.000000	1.284107
4108.000000	1.283836
4106.000000	1.283723
4104.000000	1.283761
4102.000000	1.283696
4100.000000	1.283678
4098.000000	1.283861
4096.000000	1.283873
4094.000000	1.283760
4092.000000	1.283786
4090.000000	1.283789
4088.000000	1.283792
4086.000000	1.283820
4084.000000	1.283655
4082.000000	1.283452
4080.000000	1.283427
4078.000000	1.283508
4076.000000	1.283542
4074.000000	1.283462
4072.000000	1.283369
4070.000000	1.283310
4068.000000	1.283215
4066.000000	1.283105
4064.000000	1.283115
4062.000000	1.283259
4060.000000	1.283346
4058.000000	1.283319
4056.000000	1.283194
4054.000000	1.283037
4052.000000	1.282913
4050.000000	1.282863
4048.000000	1.282919
4046.000000	1.282977
4044.000000	1.282931
4042.000000	1.282853
4040.000000	1.282770
4038.000000	1.282729
4036.000000	1.282668
4034.000000	1.282549
4032.000000	1.282444
4030.000000	1.282374
4028.000000	1.282330
4026.000000	1.282367
4024.000000	1.282366
4022.000000	1.282322
4020.000000	1.282333
4018.000000	1.282318
4016.000000	1.282199
4014.000000	1.282084
4012.000000	1.282056
4010.000000	1.282168
4008.000000	1.282176
4006.000000	1.282007
4004.000000	1.281919
4002.000000	1.281922
4000.000000	1.281924
3998.000000	1.281967
3996.000000	1.281913
3994.000000	1.281779
3992.000000	1.281723
3990.000000	1.281706
3988.000000	1.281690
3986.000000	1.281691
3984.000000	1.281602
3982.000000	1.281493
3980.000000	1.281401
3978.000000	1.281324
3976.000000	1.281345
3974.000000	1.281358
3972.000000	1.281224
3970.000000	1.281114
3968.000000	1.281083
3966.000000	1.281001
3964.000000	1.280893
3962.000000	1.281010
3960.000000	1.281179
3958.000000	1.281052
3956.000000	1.280752
3954.000000	1.280544
3952.000000	1.280428
3950.000000	1.280317
3948.000000	1.280335
3946.000000	1.280318
3944.000000	1.280056
3942.000000	1.280182
3940.000000	1.280573
3938.000000	1.280592
3936.000000	1.280109
3934.000000	1.279509
3932.000000	1.279618
3930.000000	1.280130
3928.000000	1.279946
3926.000000	1.279583
3924.000000	1.279766
3922.000000	1.279592
3920.000000	1.278802
3918.000000	1.278742
3916.000000	1.279691
3914.000000	1.280208
3912.000000	1.279762
3910.000000	1.279242
3908.000000	1.278142
3906.000000	1.276215
3904.000000	1.275678
3902.000000	1.277052
3900.000000	1.278686
3898.000000	1.279912
3896.000000	1.279671
3894.000000	1.277775
3892.000000	1.277201
3890.000000	1.278405
3888.000000	1.277529
3886.000000	1.276658
3884.000000	1.278162
3882.000000	1.278275
3880.000000	1.278211
3878.000000	1.278983
3876.000000	1.278084
3874.000000	1.276641
3872.000000	1.275155
3870.000000	1.275637
3868.000000	1.277792
3866.000000	1.277407
3864.000000	1.277069
3862.000000	1.278510
3860.000000	1.278535
3858.000000	1.274571
3856.000000	1.267610
3854.000000	1.267873
3852.000000	1.277444
3850.000000	1.282540
3848.000000	1.280201
3846.000000	1.277388
3844.000000	1.276079
3842.000000	1.274680
3840.000000	1.272327
3838.000000	1.273097
3836.000000	1.277102
3834.000000	1.278311
3832.000000	1.277712
3830.000000	1.277970
3828.000000	1.277521
3826.000000	1.276439
3824.000000	1.274305
3822.000000	1.273280
3820.000000	1.274964
3818.000000	1.274323
3816.000000	1.274737
3814.000000	1.278924
3812.000000	1.279223
3810.000000	1.275516
3808.000000	1.273638
3806.000000	1.275087
3804.000000	1.274059
3802.000000	1.272591
3800.000000	1.276324
3798.000000	1.278374
3796.000000	1.277702
3794.000000	1.278167
3792.000000	1.278062
3790.000000	1.277417
3788.000000	1.277060
3786.000000	1.276899
3784.000000	1.276783
3782.000000	1.276093
3780.000000	1.275809
3778.000000	1.276883
3776.000000	1.277365
3774.000000	1.276350
3772.000000	1.274864
3770.000000	1.274814
3768.000000	1.275971
3766.000000	1.276562
3764.000000	1.276583
3762.000000	1.275472
3760.000000	1.274557
3758.000000	1.275221
3756.000000	1.273975
3754.000000	1.269453
3752.000000	1.267551
3750.000000	1.271237
3748.000000	1.272480
3746.000000	1.268552
3744.000000	1.271280
3742.000000	1.277603
3740.000000	1.275307
3738.000000	1.270574
3736.000000	1.270523
3734.000000	1.272674
3732.000000	1.274678
3730.000000	1.275791
3728.000000	1.274630
3726.000000	1.273693
3724.000000	1.274016
3722.000000	1.274298
3720.000000	1.274755
3718.000000	1.274801
3716.000000	1.273257
3714.000000	1.270429
3712.000000	1.270493
3710.000000	1.273947
3708.000000	1.276239
3706.000000	1.275908
3704.000000	1.274060
3702.000000	1.273359
3700.000000	1.274460
3698.000000	1.274778
3696.000000	1.273949
3694.000000	1.272382
3692.000000	1.269750
3690.000000	1.268349
3688.000000	1.271741
3686.000000	1.275672
3684.000000	1.274913
3682.000000	1.272741
3680.000000	1.270574
3678.000000	1.267080
3676.000000	1.266946
3674.000000	1.270356
3672.000000	1.269667
3670.000000	1.269933
3668.000000	1.273674
3666.000000	1.274063
3664.000000	1.272580
3662.000000	1.271952
3660.000000	1.270863
3658.000000	1.269187
3656.000000	1.269792
3654.000000	1.270238
3652.000000	1.266627
3650.000000	1.265154
3648.000000	1.269356
3646.000000	1.272722
3644.000000	1.272226
3642.000000	1.271041
3640.000000	1.270764
3638.000000	1.270605
3636.000000	1.270095
3634.000000	1.269050
3632.000000	1.266216
3630.000000	1.264268
3628.000000	1.268157
3626.000000	1.271868
3624.000000	1.270437
3622.000000	1.267571
3620.000000	1.266682
3618.000000	1.268362
3616.000000	1.268950
3614.000000	1.267827
3612.000000	1.267212
3610.000000	1.267113
3608.000000	1.268266
3606.000000	1.269562
3604.000000	1.269094
3602.000000	1.268219
3600.000000	1.268203
3598.000000	1.268316
3596.000000	1.268077
3594.000000	1.268137
3592.000000	1.267712
3590.000000	1.266217
3588.000000	1.266252
3586.000000	1.268251
3584.000000	1.269012
3582.000000	1.268398
3580.000000	1.268020
3578.000000	1.267940
3576.000000	1.267798
3574.000000	1.267565
3572.000000	1.267046
3570.000000	1.265909
3568.000000	1.265653
3566.000000	1.267252
3564.000000	1.268257
3562.000000	1.267905
3560.000000	1.267710
3558.000000	1.267761
3556.000000	1.267549
3554.000000	1.267268
3552.000000	1.267375
3550.000000	1.267500
3548.000000	1.267166
3546.000000	1.267141
3544.000000	1.267659
3542.000000	1.267976
3540.000000	1.267915
3538.000000	1.267869
3536.000000	1.268015
3534.000000	1.267996
3532.000000	1.267801
3530.000000	1.267750
3528.000000	1.267802
3526.000000	1.267913
3524.000000	1.268098
3522.000000	1.268450
3520.000000	1.268667
3518.000000	1.268766
3516.000000	1.268904
3514.000000	1.268929
3512.000000	1.268846
3510.000000	1.268993
3508.000000	1.269378
3506.000000	1.269412
3504.000000	1.269342
3502.000000	1.269771
3500.000000	1.270164
3498.000000	1.270201
3496.000000	1.270366
3494.000000	1.270768
3492.000000	1.271007
3490.000000	1.271064
3488.000000	1.271235
3486.000000	1.271521
3484.000000	1.271697
3482.000000	1.271886
3480.000000	1.272283
3478.000000	1.272756
3476.000000	1.273196
3474.000000	1.273529
3472.000000	1.273752
3470.000000	1.273927
3468.000000	1.274229
3466.000000	1.274663
3464.000000	1.275043
3462.000000	1.275406
3460.000000	1.275853
3458.000000	1.276349
3456.000000	1.276862
3454.000000	1.277277
3452.000000	1.277512
3450.000000	1.277736
3448.000000	1.278106
3446.000000	1.278661
3444.000000	1.279111
3442.000000	1.279558
3440.000000	1.280155
3438.000000	1.280636
3436.000000	1.281014
3434.000000	1.281516
3432.000000	1.282025
3430.000000	1.282512
3428.000000	1.283106
3426.000000	1.283669
3424.000000	1.283957
3422.000000	1.284166
3420.000000	1.284627
3418.000000	1.285176
3416.000000	1.285488
3414.000000	1.285682
3412.000000	1.285944
3410.000000	1.286156
3408.000000	1.286364
3406.000000	1.286640
3404.000000	1.286845
3402.000000	1.287028
3400.000000	1.287272
3398.000000	1.287546
3396.000000	1.287977
3394.000000	1.288253
3392.000000	1.288268
3390.000000	1.288422
3388.000000	1.288613
3386.000000	1.288796
3384.000000	1.289006
3382.000000	1.289252
3380.000000	1.289465
3378.000000	1.289574
3376.000000	1.289733
3374.000000	1.289867
3372.000000	1.289909
3370.000000	1.289932
3368.000000	1.290053
3366.000000	1.290319
3364.000000	1.290538
3362.000000	1.290565
3360.000000	1.290545
3358.000000	1.290660
3356.000000	1.290859
3354.000000	1.290995
3352.000000	1.291073
3350.000000	1.291161
3348.000000	1.291276
3346.000000	1.291327
3344.000000	1.291255
3342.000000	1.291276
3340.000000	1.291426
3338.000000	1.291472
3336.000000	1.291532
3334.000000	1.291612
3332.000000	1.291679
3330.000000	1.291767
3328.000000	1.291887
3326.000000	1.292045
3324.000000	1.292175
3322.000000	1.292238
3320.000000	1.292295
3318.000000	1.292390
3316.000000	1.292461
3314.000000	1.292517
3312.000000	1.292570
3310.000000	1.292546
3308.000000	1.292459
3306.000000	1.292504
3304.000000	1.292730
3302.000000	1.292932
3300.000000	1.293081
3298.000000	1.293107
3296.000000	1.293004
3294.000000	1.292985
3292.000000	1.293044
3290.000000	1.293193
3288.000000	1.293383
3286.000000	1.293410
3284.000000	1.293438
3282.000000	1.293516
3280.000000	1.293557
3278.000000	1.293523
3276.000000	1.293492
3274.000000	1.293555
3272.000000	1.293674
3270.000000	1.293856
3268.000000	1.293976
3266.000000	1.293976
3264.000000	1.293983
3262.000000	1.294039
3260.000000	1.294169
3258.000000	1.294288
3256.000000	1.294163
3254.000000	1.294008
3252.000000	1.294107
3250.000000	1.294275
3248.000000	1.294412
3246.000000	1.294402
3244.000000	1.294341
3242.000000	1.294390
3240.000000	1.294408
3238.000000	1.294408
3236.000000	1.294490
3234.000000	1.294626
3232.000000	1.294786
3230.000000	1.294856
3228.000000	1.294920
3226.000000	1.295067
3224.000000	1.295162
3222.000000	1.295157
3220.000000	1.295240
3218.000000	1.295340
3216.000000	1.295327
3214.000000	1.295306
3212.000000	1.295268
3210.000000	1.295223
3208.000000	1.295251
3206.000000	1.295325
3204.000000	1.295328
3202.000000	1.295341
3200.000000	1.295388
3198.000000	1.295372
3196.000000	1.295447
3194.000000	1.295513
3192.000000	1.295343
3190.000000	1.295230
3188.000000	1.295269
3186.000000	1.295348
3184.000000	1.295365
3182.000000	1.295323
3180.000000	1.295362
3178.000000	1.295466
3176.000000	1.295547
3174.000000	1.295468
3172.000000	1.295348
3170.000000	1.295332
3168.000000	1.295434
3166.000000	1.295524
3164.000000	1.295555
3162.000000	1.295578
3160.000000	1.295607
3158.000000	1.295535
3156.000000	1.295481
3154.000000	1.295548
3152.000000	1.295597
3150.000000	1.295688
3148.000000	1.295714
3146.000000	1.295649
3144.000000	1.295742
3142.000000	1.295863
3140.000000	1.295866
3138.000000	1.295840
3136.000000	1.295825
3134.000000	1.295841
3132.000000	1.295936
3130.000000	1.296008
3128.000000	1.295995
3126.000000	1.296022
3124.000000	1.296112
3122.000000	1.296133
3120.000000	1.296050
3118.000000	1.296010
3116.000000	1.296022
3114.000000	1.296146
3112.000000	1.296200
3110.000000	1.296062
3108.000000	1.295999
3106.000000	1.296061
3104.000000	1.296053
3102.000000	1.295904
3100.000000	1.295890
3098.000000	1.295963
3096.000000	1.295936
3094.000000	1.295938
3092.000000	1.295916
3090.000000	1.295844
3088.000000	1.295855
3086.000000	1.295778
3084.000000	1.295646
3082.000000	1.295531
3080.000000	1.295399
3078.000000	1.295399
3076.000000	1.295454
3074.000000	1.295362
3072.000000	1.295147
3070.000000	1.295029
3068.000000	1.294969
3066.000000	1.294930
3064.000000	1.294994
3062.000000	1.294970
3060.000000	1.294756
3058.000000	1.294577
3056.000000	1.294529
3054.000000	1.294537
3052.000000	1.294502
3050.000000	1.294373
3048.000000	1.294242
3046.000000	1.294164
3044.000000	1.294130
3042.000000	1.294053
3040.000000	1.294050
3038.000000	1.294076
3036.000000	1.293959
3034.000000	1.293785
3032.000000	1.293737
3030.000000	1.293719
3028.000000	1.293539
3026.000000	1.293355
3024.000000	1.293252
3022.000000	1.293186
3020.000000	1.293356
3018.000000	1.293619
3016.000000	1.293861
3014.000000	1.294044
3012.000000	1.294080
3010.000000	1.293986
3008.000000	1.293798
3006.000000	1.293538
3004.000000	1.293346
3002.000000	1.293231
3000.000000	1.293158
2998.000000	1.292969
2996.000000	1.292813
2994.000000	1.292794
2992.000000	1.292718
2990.000000	1.292575
2988.000000	1.292498
2986.000000	1.292483
2984.000000	1.292473
2982.000000	1.292442
2980.000000	1.292429
2978.000000	1.292390
2976.000000	1.292294
2974.000000	1.292168
2972.000000	1.291978
2970.000000	1.291873
2968.000000	1.292069
2966.000000	1.292631
2964.000000	1.293412
2962.000000	1.294147
2960.000000	1.294554
2958.000000	1.294522
2956.000000	1.294165
2954.000000	1.293637
2952.000000	1.293104
2950.000000	1.292569
2948.000000	1.292047
2946.000000	1.291565
2944.000000	1.291042
2942.000000	1.290544
2940.000000	1.290295
2938.000000	1.290312
2936.000000	1.290351
2934.000000	1.290369
2932.000000	1.290452
2930.000000	1.290548
2928.000000	1.290827
2926.000000	1.291396
2924.000000	1.292277
2922.000000	1.293279
2920.000000	1.293925
2918.000000	1.294090
2916.000000	1.293992
2914.000000	1.293765
2912.000000	1.293371
2910.000000	1.292927
2908.000000	1.292543
2906.000000	1.292241
2904.000000	1.292024
2902.000000	1.291877
2900.000000	1.291913
2898.000000	1.291856
2896.000000	1.291651
2894.000000	1.291486
2892.000000	1.291420
2890.000000	1.291354
2888.000000	1.291175
2886.000000	1.290937
2884.000000	1.290736
2882.000000	1.290541
2880.000000	1.290402
2878.000000	1.290154
2876.000000	1.289760
2874.000000	1.289461
2872.000000	1.289307
2870.000000	1.288989
2868.000000	1.288475
2866.000000	1.288200
2864.000000	1.288375
2862.000000	1.288984
2860.000000	1.289701
2858.000000	1.290276
2856.000000	1.290647
2854.000000	1.290783
2852.000000	1.290948
2850.000000	1.291230
2848.000000	1.291462
2846.000000	1.291383
2844.000000	1.291064
2842.000000	1.290704
2840.000000	1.290402
2838.000000	1.290225
2836.000000	1.290116
2834.000000	1.289991
2832.000000	1.289868
2830.000000	1.289821
2828.000000	1.289775
2826.000000	1.289719
2824.000000	1.289748
2822.000000	1.289773
2820.000000	1.289665
2818.000000	1.289492
2816.000000	1.289375
2814.000000	1.289290
2812.000000	1.289324
2810.000000	1.289320
2808.000000	1.289145
2806.000000	1.289057
2804.000000	1.289051
2802.000000	1.288951
2800.000000	1.288906
2798.000000	1.289029
2796.000000	1.289036
2794.000000	1.288883
2792.000000	1.288852
2790.000000	1.288910
2788.000000	1.288976
2786.000000	1.288983
2784.000000	1.288905
2782.000000	1.288888
2780.000000	1.288876
2778.000000	1.288746
2776.000000	1.288720
2774.000000	1.288722
2772.000000	1.288625
2770.000000	1.288520
2768.000000	1.288530
2766.000000	1.288553
2764.000000	1.288591
2762.000000	1.288516
2760.000000	1.288356
2758.000000	1.288345
2756.000000	1.288457
2754.000000	1.288524
2752.000000	1.288490
2750.000000	1.288420
2748.000000	1.288457
2746.000000	1.288468
2744.000000	1.288471
2742.000000	1.288531
2740.000000	1.288558
2738.000000	1.288531
2736.000000	1.288489
2734.000000	1.288494
2732.000000	1.288559
2730.000000	1.288618
2728.000000	1.288683
2726.000000	1.288749
2724.000000	1.288821
2722.000000	1.288878
2720.000000	1.288898
2718.000000	1.288887
2716.000000	1.288855
2714.000000	1.288849
2712.000000	1.288832
2710.000000	1.288834
2708.000000	1.289006
2706.000000	1.289166
2704.000000	1.289208
2702.000000	1.289206
2700.000000	1.289207
2698.000000	1.289315
2696.000000	1.289549
2694.000000	1.289640
2692.000000	1.289633
2690.000000	1.289664
2688.000000	1.289754
2686.000000	1.289905
2684.000000	1.289988
2682.000000	1.289984
2680.000000	1.290066
2678.000000	1.290178
2676.000000	1.290236
2674.000000	1.290221
2672.000000	1.290301
2670.000000	1.290451
2668.000000	1.290600
2666.000000	1.290674
2664.000000	1.290710
2662.000000	1.290756
2660.000000	1.290861
2658.000000	1.291001
2656.000000	1.291041
2654.000000	1.291078
2652.000000	1.291209
2650.000000	1.291228
2648.000000	1.291253
2646.000000	1.291388
2644.000000	1.291551
2642.000000	1.291571
2640.000000	1.291549
2638.000000	1.291619
2636.000000	1.291723
2634.000000	1.291788
2632.000000	1.291815
2630.000000	1.291824
2628.000000	1.291814
2626.000000	1.291822
2624.000000	1.291951
2622.000000	1.292030
2620.000000	1.292009
2618.000000	1.291976
2616.000000	1.292018
2614.000000	1.292109
2612.000000	1.292184
2610.000000	1.292200
2608.000000	1.292215
2606.000000	1.292156
2604.000000	1.292239
2602.000000	1.292326
2600.000000	1.292317
2598.000000	1.292284
2596.000000	1.292305
2594.000000	1.292418
2592.000000	1.292472
2590.000000	1.292443
2588.000000	1.292501
2586.000000	1.292599
2584.000000	1.292659
2582.000000	1.292653
2580.000000	1.292651
2578.000000	1.292648
2576.000000	1.292576
2574.000000	1.292538
2572.000000	1.292613
2570.000000	1.292656
2568.000000	1.292633
2566.000000	1.292617
2564.000000	1.292630
2562.000000	1.292654
2560.000000	1.292762
2558.000000	1.292835
2556.000000	1.292758
2554.000000	1.292573
2552.000000	1.292566
2550.000000	1.292680
2548.000000	1.292749
2546.000000	1.292679
2544.000000	1.292649
2542.000000	1.292658
2540.000000	1.292696
2538.000000	1.292695
2536.000000	1.292626
2534.000000	1.292559
2532.000000	1.292556
2530.000000	1.292564
2528.000000	1.292582
2526.000000	1.292537
2524.000000	1.292494
2522.000000	1.292485
2520.000000	1.292485
2518.000000	1.292492
2516.000000	1.292508
2514.000000	1.292503
2512.000000	1.292470
2510.000000	1.292427
2508.000000	1.292415
2506.000000	1.292402
2504.000000	1.292403
2502.000000	1.292360
2500.000000	1.292279
2498.000000	1.292256
2496.000000	1.292286
2494.000000	1.292317
2492.000000	1.292345
2490.000000	1.292258
2488.000000	1.292181
2486.000000	1.292146
2484.000000	1.292141
2482.000000	1.292104
2480.000000	1.292121
2478.000000	1.292129
2476.000000	1.292153
2474.000000	1.292154
2472.000000	1.292084
2470.000000	1.292068
2468.000000	1.292101
2466.000000	1.292107
2464.000000	1.292176
2462.000000	1.292167
2460.000000	1.292165
2458.000000	1.292136
2456.000000	1.291931
2454.000000	1.291847
2452.000000	1.292007
2450.000000	1.292044
2448.000000	1.291954
2446.000000	1.291897
2444.000000	1.291889
2442.000000	1.291861
2440.000000	1.291829
2438.000000	1.291793
2436.000000	1.291778
2434.000000	1.291740
2432.000000	1.291704
2430.000000	1.291633
2428.000000	1.291572
2426.000000	1.291518
2424.000000	1.291513
2422.000000	1.291607
2420.000000	1.291676
2418.000000	1.291585
2416.000000	1.291434
2414.000000	1.291369
2412.000000	1.291356
2410.000000	1.291338
2408.000000	1.291305
2406.000000	1.291232
2404.000000	1.291202
2402.000000	1.291228
2400.000000	1.291240
2398.000000	1.291166
2396.000000	1.291131
2394.000000	1.291121
2392.000000	1.290994
2390.000000	1.290741
2388.000000	1.290589
2386.000000	1.290498
2384.000000	1.290462
2382.000000	1.290571
2380.000000	1.290939
2378.000000	1.291576
2376.000000	1.292091
2374.000000	1.292142
2372.000000	1.292077
2370.000000	1.292087
2368.000000	1.292103
2366.000000	1.292137
2364.000000	1.292300
2362.000000	1.292591
2360.000000	1.293054
2358.000000	1.293680
2356.000000	1.294221
2354.000000	1.294575
2352.000000	1.294826
2350.000000	1.294640
2348.000000	1.294086
2346.000000	1.293839
2344.000000	1.294208
2342.000000	1.294876
2340.000000	1.295464
2338.000000	1.295598
2336.000000	1.295347
2334.000000	1.294950
2332.000000	1.294638
2330.000000	1.294410
2328.000000	1.294335
2326.000000	1.294185
2324.000000	1.293963
2322.000000	1.293867
2320.000000	1.293927
2318.000000	1.293870
2316.000000	1.293691
2314.000000	1.293536
2312.000000	1.293428
2310.000000	1.293241
2308.000000	1.293123
2306.000000	1.293091
2304.000000	1.293080
2302.000000	1.293004
2300.000000	1.293015
2298.000000	1.293094
2296.000000	1.293092
2294.000000	1.292944
2292.000000	1.292758
2290.000000	1.292708
2288.000000	1.292718
2286.000000	1.292738
2284.000000	1.292807
2282.000000	1.292858
2280.000000	1.292866
2278.000000	1.292819
2276.000000	1.292839
2274.000000	1.292752
2272.000000	1.292707
2270.000000	1.292770
2268.000000	1.292675
2266.000000	1.292550
2264.000000	1.292537
2262.000000	1.292375
2260.000000	1.292270
2258.000000	1.292152
2256.000000	1.292136
2254.000000	1.292252
2252.000000	1.292232
2250.000000	1.292036
2248.000000	1.291911
2246.000000	1.291771
2244.000000	1.291656
2242.000000	1.291670
2240.000000	1.291708
2238.000000	1.291641
2236.000000	1.291492
2234.000000	1.291257
2232.000000	1.291147
2230.000000	1.291019
2228.000000	1.290960
2226.000000	1.290952
2224.000000	1.290874
2222.000000	1.290876
2220.000000	1.290879
2218.000000	1.290762
2216.000000	1.290678
2214.000000	1.290684
2212.000000	1.290592
2210.000000	1.290430
2208.000000	1.290380
2206.000000	1.290245
2204.000000	1.290196
2202.000000	1.290199
2200.000000	1.290048
2198.000000	1.289866
2196.000000	1.289887
2194.000000	1.289875
2192.000000	1.289816
2190.000000	1.289795
2188.000000	1.289775
2186.000000	1.289722
2184.000000	1.289656
2182.000000	1.289510
2180.000000	1.289357
2178.000000	1.289311
2176.000000	1.289392
2174.000000	1.289355
2172.000000	1.289192
2170.000000	1.288958
2168.000000	1.288991
2166.000000	1.289150
2164.000000	1.289065
2162.000000	1.288966
2160.000000	1.288862
2158.000000	1.288779
2156.000000	1.288767
2154.000000	1.288577
2152.000000	1.288592
2150.000000	1.288581
2148.000000	1.288573
2146.000000	1.288598
2144.000000	1.288416
2142.000000	1.288116
2140.000000	1.287989
2138.000000	1.287921
2136.000000	1.287833
2134.000000	1.287853
2132.000000	1.287753
2130.000000	1.287803
2128.000000	1.287892
2126.000000	1.287839
2124.000000	1.287966
2122.000000	1.287868
2120.000000	1.287676
2118.000000	1.287576
2116.000000	1.287498
2114.000000	1.287560
2112.000000	1.287605
2110.000000	1.287443
2108.000000	1.287308
2106.000000	1.287398
2104.000000	1.287350
2102.000000	1.286975
2100.000000	1.286697
2098.000000	1.286820
2096.000000	1.286938
2094.000000	1.286825
2092.000000	1.286883
2090.000000	1.287032
2088.000000	1.287076
2086.000000	1.286928
2084.000000	1.286902
2082.000000	1.286900
2080.000000	1.286813
2078.000000	1.286773
2076.000000	1.286825
2074.000000	1.286784
2072.000000	1.286553
2070.000000	1.286475
2068.000000	1.286557
2066.000000	1.286466
2064.000000	1.286379
2062.000000	1.286245
2060.000000	1.286259
2058.000000	1.286278
2056.000000	1.286286
2054.000000	1.286209
2052.000000	1.286139
2050.000000	1.286132
2048.000000	1.286131
2046.000000	1.285974
2044.000000	1.285844
2042.000000	1.285882
2040.000000	1.285936
2038.000000	1.285856
2036.000000	1.285725
2034.000000	1.285681
2032.000000	1.285764
2030.000000	1.285733
2028.000000	1.285758
2026.000000	1.285694
2024.000000	1.285614
2022.000000	1.285607
2020.000000	1.285432
2018.000000	1.285259
2016.000000	1.285455
2014.000000	1.285585
2012.000000	1.285559
2010.000000	1.285438
2008.000000	1.285364
2006.000000	1.285394
2004.000000	1.285458
2002.000000	1.285456
2000.000000	1.285413
1998.000000	1.285384
1996.000000	1.285351
1994.000000	1.285019
1992.000000	1.284895
1990.000000	1.285126
1988.000000	1.285231
1986.000000	1.285142
1984.000000	1.285023
1982.000000	1.285063
1980.000000	1.285073
1978.000000	1.284983
1976.000000	1.284989
1974.000000	1.284980
1972.000000	1.284915
1970.000000	1.284778
1968.000000	1.284644
1966.000000	1.284725
1964.000000	1.284868
1962.000000	1.284786
1960.000000	1.284755
1958.000000	1.285046
1956.000000	1.285079
1954.000000	1.284852
1952.000000	1.284808
1950.000000	1.284862
1948.000000	1.284896
1946.000000	1.284728
1944.000000	1.284382
1942.000000	1.284596
1940.000000	1.285081
1938.000000	1.285026
1936.000000	1.284909
1934.000000	1.284879
1932.000000	1.284919
1930.000000	1.284869
1928.000000	1.284929
1926.000000	1.284855
1924.000000	1.284684
1922.000000	1.284823
1920.000000	1.284433
1918.000000	1.284325
1916.000000	1.285093
1914.000000	1.285050
1912.000000	1.284905
1910.000000	1.284866
1908.000000	1.285127
1906.000000	1.285240
1904.000000	1.285347
1902.000000	1.285357
1900.000000	1.285314
1898.000000	1.285137
1896.000000	1.285109
1894.000000	1.285246
1892.000000	1.284977
1890.000000	1.284658
1888.000000	1.285201
1886.000000	1.285348
1884.000000	1.285473
1882.000000	1.285467
1880.000000	1.285520
1878.000000	1.285479
1876.000000	1.285388
1874.000000	1.285208
1872.000000	1.284552
1870.000000	1.283673
1868.000000	1.284587
1866.000000	1.285434
1864.000000	1.285466
1862.000000	1.285367
1860.000000	1.285377
1858.000000	1.285280
1856.000000	1.285370
1854.000000	1.285333
1852.000000	1.285367
1850.000000	1.285158
1848.000000	1.284621
1846.000000	1.282996
1844.000000	1.283528
1842.000000	1.285682
1840.000000	1.285609
1838.000000	1.285228
1836.000000	1.285340
1834.000000	1.285164
1832.000000	1.284124
1830.000000	1.283997
1828.000000	1.284924
1826.000000	1.284614
1824.000000	1.285254
1822.000000	1.285690
1820.000000	1.285564
1818.000000	1.285531
1816.000000	1.285660
1814.000000	1.285360
1812.000000	1.285091
1810.000000	1.285361
1808.000000	1.285752
1806.000000	1.285615
1804.000000	1.285131
1802.000000	1.284580
1800.000000	1.284985
1798.000000	1.285426
1796.000000	1.284841
1794.000000	1.283013
1792.000000	1.283703
1790.000000	1.285734
1788.000000	1.285665
1786.000000	1.284885
1784.000000	1.285199
1782.000000	1.285145
1780.000000	1.285263
1778.000000	1.285468
1776.000000	1.284342
1774.000000	1.281872
1772.000000	1.282941
1770.000000	1.285050
1768.000000	1.285298
1766.000000	1.286135
1764.000000	1.284884
1762.000000	1.284531
1760.000000	1.285665
1758.000000	1.285208
1756.000000	1.285601
1754.000000	1.284797
1752.000000	1.282884
1750.000000	1.284353
1748.000000	1.285593
1746.000000	1.285722
1744.000000	1.285523
1742.000000	1.284737
1740.000000	1.284616
1738.000000	1.285229
1736.000000	1.280963
1734.000000	1.280984
1732.000000	1.286435
1730.000000	1.287092
1728.000000	1.287104
1726.000000	1.286999
1724.000000	1.286866
1722.000000	1.286252
1720.000000	1.282716
1718.000000	1.280734
1716.000000	1.284890
1714.000000	1.287229
1712.000000	1.287629
1710.000000	1.286944
1708.000000	1.286169
1706.000000	1.285654
1704.000000	1.285548
1702.000000	1.280641
1700.000000	1.281427
1698.000000	1.283394
1696.000000	1.283079
1694.000000	1.288339
1692.000000	1.288527
1690.000000	1.287363
1688.000000	1.285434
1686.000000	1.280260
1684.000000	1.283045
1682.000000	1.288764
1680.000000	1.288444
1678.000000	1.286786
1676.000000	1.285095
1674.000000	1.287179
1672.000000	1.286550
1670.000000	1.285619
1668.000000	1.288125
1666.000000	1.288641
1664.000000	1.286997
1662.000000	1.287986
1660.000000	1.289228
1658.000000	1.288366
1656.000000	1.282665
1654.000000	1.276697
1652.000000	1.284601
1650.000000	1.289222
1648.000000	1.285100
1646.000000	1.286471
1644.000000	1.290089
1642.000000	1.290041
1640.000000	1.288829
1638.000000	1.285592
1636.000000	1.284520
1634.000000	1.289317
1632.000000	1.290630
1630.000000	1.289165
1628.000000	1.288796
1626.000000	1.288416
1624.000000	1.287620
1622.000000	1.289024
1620.000000	1.288157
1618.000000	1.284715
1616.000000	1.287146
1614.000000	1.290336
1612.000000	1.289512
1610.000000	1.289623
1608.000000	1.290306
1606.000000	1.291015
1604.000000	1.291115
1602.000000	1.291364
1600.000000	1.291442
1598.000000	1.291343
1596.000000	1.291099
1594.000000	1.291187
1592.000000	1.291131
1590.000000	1.291082
1588.000000	1.291064
1586.000000	1.291071
1584.000000	1.291071
1582.000000	1.291111
1580.000000	1.290116
1578.000000	1.286301
1576.000000	1.287024
1574.000000	1.291516
1572.000000	1.289605
1570.000000	1.288488
1568.000000	1.290454
1566.000000	1.290636
1564.000000	1.289557
1562.000000	1.284342
1560.000000	1.279083
1558.000000	1.285237
1556.000000	1.289534
1554.000000	1.289888
1552.000000	1.290816
1550.000000	1.290722
1548.000000	1.290493
1546.000000	1.288614
1544.000000	1.286317
1542.000000	1.282866
1540.000000	1.283303
1538.000000	1.289907
1536.000000	1.290571
1534.000000	1.288641
1532.000000	1.290409
1530.000000	1.290391
1528.000000	1.289001
1526.000000	1.288392
1524.000000	1.286699
1522.000000	1.284641
1520.000000	1.287576
1518.000000	1.288499
1516.000000	1.288987
1514.000000	1.289661
1512.000000	1.289182
1510.000000	1.286810
1508.000000	1.282101
1506.000000	1.284594
1504.000000	1.289754
1502.000000	1.288097
1500.000000	1.284516
1498.000000	1.282189
1496.000000	1.285144
1494.000000	1.290758
1492.000000	1.291929
1490.000000	1.291838
1488.000000	1.292461
1486.000000	1.292686
1484.000000	1.292249
1482.000000	1.291401
1480.000000	1.291125
1478.000000	1.289822
1476.000000	1.288147
1474.000000	1.286345
1472.000000	1.288039
1470.000000	1.290603
1468.000000	1.289834
1466.000000	1.288294
1464.000000	1.289239
1462.000000	1.289610
1460.000000	1.286063
1458.000000	1.282116
1456.000000	1.285536
1454.000000	1.289212
1452.000000	1.289546
1450.000000	1.290569
1448.000000	1.291274
1446.000000	1.291654
1444.000000	1.290951
1442.000000	1.290478
1440.000000	1.289246
1438.000000	1.286805
1436.000000	1.288223
1434.000000	1.290365
1432.000000	1.289455
1430.000000	1.289393
1428.000000	1.289883
1426.000000	1.289625
1424.000000	1.289236
1422.000000	1.288046
1420.000000	1.286238
1418.000000	1.288571
1416.000000	1.290013
1414.000000	1.289752
1412.000000	1.289292
1410.000000	1.289047
1408.000000	1.288500
1406.000000	1.288220
1404.000000	1.289012
1402.000000	1.289677
1400.000000	1.289351
1398.000000	1.289574
1396.000000	1.288918
1394.000000	1.289458
1392.000000	1.290136
1390.000000	1.288901
1388.000000	1.287875
1386.000000	1.288868
1384.000000	1.289710
1382.000000	1.289813
1380.000000	1.289433
1378.000000	1.289111
1376.000000	1.288643
1374.000000	1.288618
1372.000000	1.288986
1370.000000	1.288916
1368.000000	1.288863
1366.000000	1.288691
1364.000000	1.288025
1362.000000	1.288153
1360.000000	1.288703
1358.000000	1.288855
1356.000000	1.288793
1354.000000	1.288762
1352.000000	1.288594
1350.000000	1.288463
1348.000000	1.288506
1346.000000	1.288616
1344.000000	1.288602
1342.000000	1.288218
1340.000000	1.287883
1338.000000	1.288171
1336.000000	1.288510
1334.000000	1.288653
1332.000000	1.288483
1330.000000	1.288367
1328.000000	1.288283
1326.000000	1.288234
1324.000000	1.288111
1322.000000	1.287850
1320.000000	1.287558
1318.000000	1.287598
1316.000000	1.287529
1314.000000	1.287456
1312.000000	1.287580
1310.000000	1.287713
1308.000000	1.287531
1306.000000	1.287311
1304.000000	1.287167
1302.000000	1.287250
1300.000000	1.287342
1298.000000	1.287360
1296.000000	1.287250
1294.000000	1.287176
1292.000000	1.287161
1290.000000	1.287292
1288.000000	1.287248
1286.000000	1.287199
1284.000000	1.287114
1282.000000	1.287075
1280.000000	1.287104
1278.000000	1.287178
1276.000000	1.287161
1274.000000	1.287270
1272.000000	1.287428
1270.000000	1.287806
1268.000000	1.288511
1266.000000	1.289667
1264.000000	1.291461
1262.000000	1.294009
1260.000000	1.296263
1258.000000	1.297056
1256.000000	1.296213
1254.000000	1.294432
1252.000000	1.292669
1250.000000	1.291630
1248.000000	1.291248
1246.000000	1.291147
1244.000000	1.291127
1242.000000	1.291174
1240.000000	1.291337
1238.000000	1.291733
1236.000000	1.292072
1234.000000	1.292407
1232.000000	1.292725
1230.000000	1.293095
1228.000000	1.293292
1226.000000	1.293565
1224.000000	1.294054
1222.000000	1.294287
1220.000000	1.294355
1218.000000	1.294433
1216.000000	1.294584
1214.000000	1.295029
1212.000000	1.295572
1210.000000	1.296176
1208.000000	1.296513
1206.000000	1.296590
1204.000000	1.296783
1202.000000	1.297100
1200.000000	1.297201
1198.000000	1.297377
1196.000000	1.297822
1194.000000	1.298319
1192.000000	1.298608
1190.000000	1.298884
1188.000000	1.299135
1186.000000	1.299509
1184.000000	1.299430
1182.000000	1.299503
1180.000000	1.300716
1178.000000	1.301931
1176.000000	1.302240
1174.000000	1.302234
1172.000000	1.302239
1170.000000	1.302489
1168.000000	1.303132
1166.000000	1.303702
1164.000000	1.303999
1162.000000	1.304337
1160.000000	1.304650
1158.000000	1.305152
1156.000000	1.305639
1154.000000	1.306052
1152.000000	1.306120
1150.000000	1.306259
1148.000000	1.306554
1146.000000	1.306965
1144.000000	1.307595
1142.000000	1.308238
1140.000000	1.308563
1138.000000	1.308770
1136.000000	1.308939
1134.000000	1.308938
1132.000000	1.309073
1130.000000	1.309527
1128.000000	1.310099
1126.000000	1.310581
1124.000000	1.310667
1122.000000	1.310702
1120.000000	1.310709
1118.000000	1.310627
1116.000000	1.311067
1114.000000	1.311810
1112.000000	1.312356
1110.000000	1.312701
1108.000000	1.312894
1106.000000	1.313498
1104.000000	1.314044
1102.000000	1.314992
1100.000000	1.315939
1098.000000	1.315844
1096.000000	1.315592
1094.000000	1.316122
1092.000000	1.316478
1090.000000	1.316287
1088.000000	1.316560
1086.000000	1.316575
1084.000000	1.315709
1082.000000	1.315416
1080.000000	1.315623
1078.000000	1.315518
1076.000000	1.315253
1074.000000	1.315466
1072.000000	1.315452
1070.000000	1.314954
1068.000000	1.314206
1066.000000	1.313510
1064.000000	1.312772
1062.000000	1.312233
1060.000000	1.311231
1058.000000	1.310560
1056.000000	1.309834
1054.000000	1.309218
1052.000000	1.309168
1050.000000	1.310144
1048.000000	1.311068
1046.000000	1.310570
1044.000000	1.309567
1042.000000	1.308575
1040.000000	1.307896
1038.000000	1.307436
1036.000000	1.306875
1034.000000	1.306268
1032.000000	1.306082
1030.000000	1.305383
1028.000000	1.304836
1026.000000	1.305137
1024.000000	1.304837
1022.000000	1.304083
1020.000000	1.303656
1018.000000	1.303143
1016.000000	1.302682
1014.000000	1.301721
1012.000000	1.299789
1010.000000	1.298327
1008.000000	1.296653
1006.000000	1.294527
1004.000000	1.292539
1002.000000	1.290664
1000.000000	1.289687
