PE IR       SUBTECH     SPECTRUM    ASCII       PEDS        4.00        
   -1
TE110A_082_80K_AFTER_140K_2MIN.ASC
20/05/14
15:51:48.00
20/05/14
15:51:48.00
Administrator
TE110A.Thursday, May 14 2020, 013.
1000.000000
#HDR
-1
-1
#GR
cm-1
A
1.0
0.0
6000.000000
-2.000000
2501
8
1.287978
1.228938
#DATA
6000.000000	1.243256
5998.000000	1.243063
5996.000000	1.242978
5994.000000	1.242858
5992.000000	1.243001
5990.000000	1.243241
5988.000000	1.243134
5986.000000	1.242853
5984.000000	1.242992
5982.000000	1.243208
5980.000000	1.243204
5978.000000	1.243089
5976.000000	1.242608
5974.000000	1.242673
5972.000000	1.242601
5970.000000	1.242525
5968.000000	1.242470
5966.000000	1.242327
5964.000000	1.242539
5962.000000	1.242709
5960.000000	1.242693
5958.000000	1.242664
5956.000000	1.242565
5954.000000	1.242407
5952.000000	1.242407
5950.000000	1.242559
5948.000000	1.242750
5946.000000	1.242704
5944.000000	1.242549
5942.000000	1.242804
5940.000000	1.243029
5938.000000	1.243049
5936.000000	1.242880
5934.000000	1.242701
5932.000000	1.242510
5930.000000	1.242484
5928.000000	1.242737
5926.000000	1.243114
5924.000000	1.243274
5922.000000	1.242889
5920.000000	1.242448
5918.000000	1.242331
5916.000000	1.242533
5914.000000	1.242881
5912.000000	1.242841
5910.000000	1.242706
5908.000000	1.242691
5906.000000	1.242914
5904.000000	1.242923
5902.000000	1.242853
5900.000000	1.242922
5898.000000	1.242958
5896.000000	1.242815
5894.000000	1.242586
5892.000000	1.242682
5890.000000	1.242679
5888.000000	1.242347
5886.000000	1.241982
5884.000000	1.242011
5882.000000	1.242103
5880.000000	1.242025
5878.000000	1.241815
5876.000000	1.242141
5874.000000	1.242443
5872.000000	1.242519
5870.000000	1.242104
5868.000000	1.241635
5866.000000	1.241572
5864.000000	1.241931
5862.000000	1.242205
5860.000000	1.242278
5858.000000	1.242012
5856.000000	1.242083
5854.000000	1.242449
5852.000000	1.242585
5850.000000	1.242763
5848.000000	1.242734
5846.000000	1.242562
5844.000000	1.242145
5842.000000	1.241768
5840.000000	1.241921
5838.000000	1.242395
5836.000000	1.242581
5834.000000	1.242526
5832.000000	1.242443
5830.000000	1.242420
5828.000000	1.242748
5826.000000	1.243200
5824.000000	1.243248
5822.000000	1.242836
5820.000000	1.242375
5818.000000	1.242227
5816.000000	1.242263
5814.000000	1.242268
5812.000000	1.242482
5810.000000	1.242829
5808.000000	1.243239
5806.000000	1.243326
5804.000000	1.243221
5802.000000	1.243105
5800.000000	1.243033
5798.000000	1.242918
5796.000000	1.242580
5794.000000	1.242463
5792.000000	1.242574
5790.000000	1.242689
5788.000000	1.242531
5786.000000	1.242371
5784.000000	1.242420
5782.000000	1.242499
5780.000000	1.242490
5778.000000	1.242395
5776.000000	1.242424
5774.000000	1.242785
5772.000000	1.243156
5770.000000	1.243218
5768.000000	1.243120
5766.000000	1.243013
5764.000000	1.242885
5762.000000	1.242616
5760.000000	1.242429
5758.000000	1.242539
5756.000000	1.242850
5754.000000	1.242929
5752.000000	1.242810
5750.000000	1.242630
5748.000000	1.242610
5746.000000	1.242740
5744.000000	1.242688
5742.000000	1.242611
5740.000000	1.242627
5738.000000	1.242577
5736.000000	1.242547
5734.000000	1.242435
5732.000000	1.242420
5730.000000	1.242288
5728.000000	1.242064
5726.000000	1.242212
5724.000000	1.242499
5722.000000	1.242737
5720.000000	1.242667
5718.000000	1.242587
5716.000000	1.242666
5714.000000	1.242848
5712.000000	1.242995
5710.000000	1.243152
5708.000000	1.243201
5706.000000	1.242895
5704.000000	1.242465
5702.000000	1.242218
5700.000000	1.242357
5698.000000	1.242558
5696.000000	1.242514
5694.000000	1.242560
5692.000000	1.242684
5690.000000	1.242752
5688.000000	1.242589
5686.000000	1.242386
5684.000000	1.242369
5682.000000	1.242533
5680.000000	1.242802
5678.000000	1.242938
5676.000000	1.242685
5674.000000	1.242373
5672.000000	1.242310
5670.000000	1.242468
5668.000000	1.242695
5666.000000	1.242713
5664.000000	1.242878
5662.000000	1.242955
5660.000000	1.243017
5658.000000	1.243181
5656.000000	1.243434
5654.000000	1.243469
5652.000000	1.243082
5650.000000	1.242601
5648.000000	1.242466
5646.000000	1.242562
5644.000000	1.242486
5642.000000	1.242432
5640.000000	1.242581
5638.000000	1.242955
5636.000000	1.243089
5634.000000	1.242946
5632.000000	1.242762
5630.000000	1.242805
5628.000000	1.242894
5626.000000	1.242973
5624.000000	1.242948
5622.000000	1.242874
5620.000000	1.242798
5618.000000	1.242790
5616.000000	1.242931
5614.000000	1.243012
5612.000000	1.243043
5610.000000	1.242901
5608.000000	1.242853
5606.000000	1.242776
5604.000000	1.242473
5602.000000	1.242183
5600.000000	1.242233
5598.000000	1.242658
5596.000000	1.242845
5594.000000	1.242651
5592.000000	1.242559
5590.000000	1.242666
5588.000000	1.242728
5586.000000	1.242642
5584.000000	1.242564
5582.000000	1.242549
5580.000000	1.242581
5578.000000	1.242556
5576.000000	1.242487
5574.000000	1.242390
5572.000000	1.242413
5570.000000	1.242576
5568.000000	1.242697
5566.000000	1.242626
5564.000000	1.242464
5562.000000	1.242399
5560.000000	1.242574
5558.000000	1.242570
5556.000000	1.242370
5554.000000	1.242314
5552.000000	1.242345
5550.000000	1.242282
5548.000000	1.242267
5546.000000	1.242455
5544.000000	1.242767
5542.000000	1.242775
5540.000000	1.242761
5538.000000	1.242826
5536.000000	1.242758
5534.000000	1.242748
5532.000000	1.242754
5530.000000	1.242778
5528.000000	1.242509
5526.000000	1.242210
5524.000000	1.242344
5522.000000	1.242651
5520.000000	1.242828
5518.000000	1.242665
5516.000000	1.242585
5514.000000	1.242657
5512.000000	1.242604
5510.000000	1.242569
5508.000000	1.242778
5506.000000	1.243022
5504.000000	1.243038
5502.000000	1.242783
5500.000000	1.242553
5498.000000	1.242394
5496.000000	1.242130
5494.000000	1.241951
5492.000000	1.241813
5490.000000	1.241860
5488.000000	1.242097
5486.000000	1.242261
5484.000000	1.242381
5482.000000	1.242417
5480.000000	1.242328
5478.000000	1.242069
5476.000000	1.241961
5474.000000	1.242242
5472.000000	1.242411
5470.000000	1.242162
5468.000000	1.241847
5466.000000	1.241822
5464.000000	1.241800
5462.000000	1.241883
5460.000000	1.242231
5458.000000	1.242608
5456.000000	1.242680
5454.000000	1.242488
5452.000000	1.242294
5450.000000	1.242067
5448.000000	1.241978
5446.000000	1.242055
5444.000000	1.242028
5442.000000	1.241924
5440.000000	1.241902
5438.000000	1.242043
5436.000000	1.242310
5434.000000	1.242530
5432.000000	1.242450
5430.000000	1.242155
5428.000000	1.242269
5426.000000	1.242624
5424.000000	1.242780
5422.000000	1.242611
5420.000000	1.242425
5418.000000	1.242136
5416.000000	1.241690
5414.000000	1.241427
5412.000000	1.241621
5410.000000	1.242113
5408.000000	1.242495
5406.000000	1.242500
5404.000000	1.242301
5402.000000	1.242145
5400.000000	1.241983
5398.000000	1.241620
5396.000000	1.241269
5394.000000	1.241476
5392.000000	1.241955
5390.000000	1.242067
5388.000000	1.241741
5386.000000	1.241718
5384.000000	1.242224
5382.000000	1.242460
5380.000000	1.242019
5378.000000	1.241605
5376.000000	1.241679
5374.000000	1.242167
5372.000000	1.242522
5370.000000	1.242587
5368.000000	1.242434
5366.000000	1.242341
5364.000000	1.242588
5362.000000	1.242948
5360.000000	1.242862
5358.000000	1.242246
5356.000000	1.241653
5354.000000	1.241633
5352.000000	1.242016
5350.000000	1.242096
5348.000000	1.241649
5346.000000	1.241436
5344.000000	1.241745
5342.000000	1.241924
5340.000000	1.241539
5338.000000	1.241440
5336.000000	1.242040
5334.000000	1.242594
5332.000000	1.242417
5330.000000	1.241913
5328.000000	1.241847
5326.000000	1.242156
5324.000000	1.242503
5322.000000	1.242644
5320.000000	1.242576
5318.000000	1.242428
5316.000000	1.242317
5314.000000	1.242269
5312.000000	1.242263
5310.000000	1.242244
5308.000000	1.242391
5306.000000	1.242455
5304.000000	1.242337
5302.000000	1.242168
5300.000000	1.242263
5298.000000	1.242391
5296.000000	1.242421
5294.000000	1.242144
5292.000000	1.241965
5290.000000	1.242053
5288.000000	1.242262
5286.000000	1.242350
5284.000000	1.242245
5282.000000	1.242270
5280.000000	1.242312
5278.000000	1.242358
5276.000000	1.242374
5274.000000	1.242206
5272.000000	1.241927
5270.000000	1.241858
5268.000000	1.241859
5266.000000	1.241743
5264.000000	1.241730
5262.000000	1.242187
5260.000000	1.242657
5258.000000	1.242518
5256.000000	1.242292
5254.000000	1.242427
5252.000000	1.242479
5250.000000	1.242058
5248.000000	1.241792
5246.000000	1.242228
5244.000000	1.242811
5242.000000	1.242781
5240.000000	1.242528
5238.000000	1.242456
5236.000000	1.242330
5234.000000	1.242139
5232.000000	1.242272
5230.000000	1.242568
5228.000000	1.242455
5226.000000	1.242245
5224.000000	1.242424
5222.000000	1.242656
5220.000000	1.242590
5218.000000	1.242436
5216.000000	1.242509
5214.000000	1.242593
5212.000000	1.242343
5210.000000	1.241942
5208.000000	1.241900
5206.000000	1.242254
5204.000000	1.242500
5202.000000	1.242448
5200.000000	1.242329
5198.000000	1.242455
5196.000000	1.242657
5194.000000	1.242682
5192.000000	1.242534
5190.000000	1.242540
5188.000000	1.242619
5186.000000	1.242475
5184.000000	1.242356
5182.000000	1.242413
5180.000000	1.242491
5178.000000	1.242443
5176.000000	1.242439
5174.000000	1.242394
5172.000000	1.242323
5170.000000	1.242357
5168.000000	1.242473
5166.000000	1.242471
5164.000000	1.242470
5162.000000	1.242491
5160.000000	1.242363
5158.000000	1.242330
5156.000000	1.242634
5154.000000	1.242948
5152.000000	1.242907
5150.000000	1.242643
5148.000000	1.242523
5146.000000	1.242618
5144.000000	1.242833
5142.000000	1.242958
5140.000000	1.242904
5138.000000	1.242823
5136.000000	1.242788
5134.000000	1.242711
5132.000000	1.242733
5130.000000	1.242834
5128.000000	1.242967
5126.000000	1.242956
5124.000000	1.243005
5122.000000	1.242909
5120.000000	1.242683
5118.000000	1.242586
5116.000000	1.242665
5114.000000	1.242799
5112.000000	1.242892
5110.000000	1.242935
5108.000000	1.242778
5106.000000	1.242582
5104.000000	1.242703
5102.000000	1.243012
5100.000000	1.243173
5098.000000	1.242996
5096.000000	1.242915
5094.000000	1.243014
5092.000000	1.243132
5090.000000	1.243113
5088.000000	1.243083
5086.000000	1.243039
5084.000000	1.242892
5082.000000	1.242825
5080.000000	1.242911
5078.000000	1.242992
5076.000000	1.242910
5074.000000	1.242798
5072.000000	1.242856
5070.000000	1.242954
5068.000000	1.242967
5066.000000	1.242900
5064.000000	1.242930
5062.000000	1.243096
5060.000000	1.243293
5058.000000	1.243294
5056.000000	1.243149
5054.000000	1.243035
5052.000000	1.243047
5050.000000	1.243124
5048.000000	1.243212
5046.000000	1.243241
5044.000000	1.243267
5042.000000	1.243319
5040.000000	1.243372
5038.000000	1.243295
5036.000000	1.243160
5034.000000	1.243149
5032.000000	1.243251
5030.000000	1.243326
5028.000000	1.243250
5026.000000	1.243185
5024.000000	1.243192
5022.000000	1.243256
5020.000000	1.243250
5018.000000	1.243332
5016.000000	1.243567
5014.000000	1.243678
5012.000000	1.243509
5010.000000	1.243336
5008.000000	1.243343
5006.000000	1.243386
5004.000000	1.243385
5002.000000	1.243328
5000.000000	1.243263
4998.000000	1.243306
4996.000000	1.243587
4994.000000	1.243765
4992.000000	1.243649
4990.000000	1.243489
4988.000000	1.243525
4986.000000	1.243561
4984.000000	1.243438
4982.000000	1.243372
4980.000000	1.243401
4978.000000	1.243472
4976.000000	1.243580
4974.000000	1.243647
4972.000000	1.243601
4970.000000	1.243565
4968.000000	1.243673
4966.000000	1.243762
4964.000000	1.243683
4962.000000	1.243576
4960.000000	1.243603
4958.000000	1.243743
4956.000000	1.243840
4954.000000	1.243811
4952.000000	1.243811
4950.000000	1.243961
4948.000000	1.244197
4946.000000	1.244240
4944.000000	1.244045
4942.000000	1.243843
4940.000000	1.243797
4938.000000	1.243894
4936.000000	1.243980
4934.000000	1.243967
4932.000000	1.243957
4930.000000	1.243991
4928.000000	1.243995
4926.000000	1.243962
4924.000000	1.243994
4922.000000	1.243976
4920.000000	1.243839
4918.000000	1.243753
4916.000000	1.243877
4914.000000	1.244023
4912.000000	1.244053
4910.000000	1.244006
4908.000000	1.243992
4906.000000	1.243980
4904.000000	1.243921
4902.000000	1.243891
4900.000000	1.243926
4898.000000	1.243962
4896.000000	1.243892
4894.000000	1.243812
4892.000000	1.243914
4890.000000	1.244041
4888.000000	1.243977
4886.000000	1.243940
4884.000000	1.244103
4882.000000	1.244196
4880.000000	1.244130
4878.000000	1.244147
4876.000000	1.244241
4874.000000	1.244289
4872.000000	1.244337
4870.000000	1.244363
4868.000000	1.244270
4866.000000	1.244179
4864.000000	1.244218
4862.000000	1.244454
4860.000000	1.244614
4858.000000	1.244554
4856.000000	1.244415
4854.000000	1.244455
4852.000000	1.244524
4850.000000	1.244398
4848.000000	1.244219
4846.000000	1.244235
4844.000000	1.244411
4842.000000	1.244550
4840.000000	1.244609
4838.000000	1.244647
4836.000000	1.244577
4834.000000	1.244434
4832.000000	1.244340
4830.000000	1.244246
4828.000000	1.244131
4826.000000	1.244151
4824.000000	1.244297
4822.000000	1.244329
4820.000000	1.244398
4818.000000	1.244593
4816.000000	1.244680
4814.000000	1.244468
4812.000000	1.244206
4810.000000	1.244152
4808.000000	1.244268
4806.000000	1.244358
4804.000000	1.244412
4802.000000	1.244379
4800.000000	1.244328
4798.000000	1.244280
4796.000000	1.244269
4794.000000	1.244195
4792.000000	1.244273
4790.000000	1.244542
4788.000000	1.244738
4786.000000	1.244790
4784.000000	1.244818
4782.000000	1.244821
4780.000000	1.244697
4778.000000	1.244571
4776.000000	1.244566
4774.000000	1.244595
4772.000000	1.244646
4770.000000	1.244673
4768.000000	1.244682
4766.000000	1.244642
4764.000000	1.244639
4762.000000	1.244739
4760.000000	1.244820
4758.000000	1.244809
4756.000000	1.244766
4754.000000	1.244761
4752.000000	1.244719
4750.000000	1.244783
4748.000000	1.244902
4746.000000	1.244870
4744.000000	1.244737
4742.000000	1.244709
4740.000000	1.244763
4738.000000	1.244773
4736.000000	1.244694
4734.000000	1.244568
4732.000000	1.244512
4730.000000	1.244531
4728.000000	1.244588
4726.000000	1.244683
4724.000000	1.244731
4722.000000	1.244634
4720.000000	1.244518
4718.000000	1.244486
4716.000000	1.244522
4714.000000	1.244562
4712.000000	1.244563
4710.000000	1.244596
4708.000000	1.244703
4706.000000	1.244733
4704.000000	1.244681
4702.000000	1.244638
4700.000000	1.244632
4698.000000	1.244723
4696.000000	1.244840
4694.000000	1.244783
4692.000000	1.244742
4690.000000	1.244863
4688.000000	1.244896
4686.000000	1.244735
4684.000000	1.244617
4682.000000	1.244596
4680.000000	1.244560
4678.000000	1.244552
4676.000000	1.244672
4674.000000	1.244837
4672.000000	1.244959
4670.000000	1.245001
4668.000000	1.244988
4666.000000	1.244933
4664.000000	1.244909
4662.000000	1.244928
4660.000000	1.245012
4658.000000	1.245056
4656.000000	1.244935
4654.000000	1.244846
4652.000000	1.244996
4650.000000	1.245210
4648.000000	1.245176
4646.000000	1.245015
4644.000000	1.244942
4642.000000	1.244940
4640.000000	1.244970
4638.000000	1.245014
4636.000000	1.245020
4634.000000	1.245073
4632.000000	1.245232
4630.000000	1.245183
4628.000000	1.244987
4626.000000	1.245017
4624.000000	1.245165
4622.000000	1.245189
4620.000000	1.245199
4618.000000	1.245242
4616.000000	1.245140
4614.000000	1.244910
4612.000000	1.244847
4610.000000	1.245028
4608.000000	1.245125
4606.000000	1.245111
4604.000000	1.245211
4602.000000	1.245262
4600.000000	1.245167
4598.000000	1.245184
4596.000000	1.245300
4594.000000	1.245272
4592.000000	1.245133
4590.000000	1.245062
4588.000000	1.245111
4586.000000	1.245188
4584.000000	1.245082
4582.000000	1.244924
4580.000000	1.244983
4578.000000	1.245174
4576.000000	1.245312
4574.000000	1.245460
4572.000000	1.245531
4570.000000	1.245422
4568.000000	1.245330
4566.000000	1.245353
4564.000000	1.245399
4562.000000	1.245408
4560.000000	1.245399
4558.000000	1.245327
4556.000000	1.245256
4554.000000	1.245210
4552.000000	1.245239
4550.000000	1.245295
4548.000000	1.245275
4546.000000	1.245241
4544.000000	1.245306
4542.000000	1.245357
4540.000000	1.245324
4538.000000	1.245305
4536.000000	1.245262
4534.000000	1.245203
4532.000000	1.245192
4530.000000	1.245203
4528.000000	1.245247
4526.000000	1.245321
4524.000000	1.245355
4522.000000	1.245436
4520.000000	1.245493
4518.000000	1.245433
4516.000000	1.245346
4514.000000	1.245339
4512.000000	1.245374
4510.000000	1.245499
4508.000000	1.245563
4506.000000	1.245435
4504.000000	1.245282
4502.000000	1.245311
4500.000000	1.245336
4498.000000	1.245251
4496.000000	1.245267
4494.000000	1.245353
4492.000000	1.245376
4490.000000	1.245445
4488.000000	1.245509
4486.000000	1.245387
4484.000000	1.245222
4482.000000	1.245293
4480.000000	1.245499
4478.000000	1.245570
4476.000000	1.245497
4474.000000	1.245502
4472.000000	1.245588
4470.000000	1.245682
4468.000000	1.245829
4466.000000	1.245882
4464.000000	1.245738
4462.000000	1.245630
4460.000000	1.245662
4458.000000	1.245617
4456.000000	1.245502
4454.000000	1.245500
4452.000000	1.245585
4450.000000	1.245617
4448.000000	1.245578
4446.000000	1.245579
4444.000000	1.245646
4442.000000	1.245661
4440.000000	1.245591
4438.000000	1.245551
4436.000000	1.245538
4434.000000	1.245536
4432.000000	1.245647
4430.000000	1.245728
4428.000000	1.245710
4426.000000	1.245713
4424.000000	1.245746
4422.000000	1.245716
4420.000000	1.245665
4418.000000	1.245638
4416.000000	1.245610
4414.000000	1.245544
4412.000000	1.245446
4410.000000	1.245446
4408.000000	1.245618
4406.000000	1.245784
4404.000000	1.245693
4402.000000	1.245548
4400.000000	1.245600
4398.000000	1.245711
4396.000000	1.245719
4394.000000	1.245717
4392.000000	1.245710
4390.000000	1.245724
4388.000000	1.245780
4386.000000	1.245803
4384.000000	1.245748
4382.000000	1.245708
4380.000000	1.245723
4378.000000	1.245841
4376.000000	1.245955
4374.000000	1.245947
4372.000000	1.245817
4370.000000	1.245713
4368.000000	1.245753
4366.000000	1.245871
4364.000000	1.245899
4362.000000	1.245853
4360.000000	1.245787
4358.000000	1.245734
4356.000000	1.245738
4354.000000	1.245805
4352.000000	1.245889
4350.000000	1.245940
4348.000000	1.245979
4346.000000	1.245980
4344.000000	1.245900
4342.000000	1.245867
4340.000000	1.245884
4338.000000	1.245800
4336.000000	1.245735
4334.000000	1.245833
4332.000000	1.245878
4330.000000	1.245811
4328.000000	1.245781
4326.000000	1.245829
4324.000000	1.245859
4322.000000	1.245847
4320.000000	1.245807
4318.000000	1.245823
4316.000000	1.245886
4314.000000	1.245857
4312.000000	1.245726
4310.000000	1.245695
4308.000000	1.245719
4306.000000	1.245671
4304.000000	1.245658
4302.000000	1.245711
4300.000000	1.245701
4298.000000	1.245684
4296.000000	1.245674
4294.000000	1.245703
4292.000000	1.245790
4290.000000	1.245812
4288.000000	1.245783
4286.000000	1.245856
4284.000000	1.245868
4282.000000	1.245802
4280.000000	1.245746
4278.000000	1.245697
4276.000000	1.245723
4274.000000	1.245867
4272.000000	1.245957
4270.000000	1.245977
4268.000000	1.245991
4266.000000	1.246002
4264.000000	1.245962
4262.000000	1.245823
4260.000000	1.245690
4258.000000	1.245753
4256.000000	1.245840
4254.000000	1.245778
4252.000000	1.245656
4250.000000	1.245595
4248.000000	1.245657
4246.000000	1.245728
4244.000000	1.245680
4242.000000	1.245699
4240.000000	1.245795
4238.000000	1.245770
4236.000000	1.245640
4234.000000	1.245659
4232.000000	1.245782
4230.000000	1.245824
4228.000000	1.245800
4226.000000	1.245792
4224.000000	1.245756
4222.000000	1.245710
4220.000000	1.245670
4218.000000	1.245637
4216.000000	1.245603
4214.000000	1.245623
4212.000000	1.245628
4210.000000	1.245586
4208.000000	1.245592
4206.000000	1.245632
4204.000000	1.245598
4202.000000	1.245555
4200.000000	1.245527
4198.000000	1.245489
4196.000000	1.245468
4194.000000	1.245489
4192.000000	1.245518
4190.000000	1.245574
4188.000000	1.245564
4186.000000	1.245522
4184.000000	1.245549
4182.000000	1.245587
4180.000000	1.245545
4178.000000	1.245538
4176.000000	1.245601
4174.000000	1.245621
4172.000000	1.245539
4170.000000	1.245527
4168.000000	1.245557
4166.000000	1.245505
4164.000000	1.245455
4162.000000	1.245427
4160.000000	1.245357
4158.000000	1.245302
4156.000000	1.245258
4154.000000	1.245224
4152.000000	1.245236
4150.000000	1.245335
4148.000000	1.245412
4146.000000	1.245362
4144.000000	1.245267
4142.000000	1.245201
4140.000000	1.245162
4138.000000	1.245195
4136.000000	1.245281
4134.000000	1.245293
4132.000000	1.245153
4130.000000	1.244979
4128.000000	1.244926
4126.000000	1.245019
4124.000000	1.245136
4122.000000	1.245162
4120.000000	1.245103
4118.000000	1.245005
4116.000000	1.244941
4114.000000	1.244944
4112.000000	1.244966
4110.000000	1.244991
4108.000000	1.244926
4106.000000	1.244827
4104.000000	1.244857
4102.000000	1.244936
4100.000000	1.244946
4098.000000	1.244890
4096.000000	1.244832
4094.000000	1.244908
4092.000000	1.244957
4090.000000	1.244895
4088.000000	1.244913
4086.000000	1.244900
4084.000000	1.244776
4082.000000	1.244753
4080.000000	1.244835
4078.000000	1.244901
4076.000000	1.244894
4074.000000	1.244912
4072.000000	1.244936
4070.000000	1.244898
4068.000000	1.244833
4066.000000	1.244763
4064.000000	1.244716
4062.000000	1.244684
4060.000000	1.244616
4058.000000	1.244554
4056.000000	1.244499
4054.000000	1.244481
4052.000000	1.244512
4050.000000	1.244558
4048.000000	1.244526
4046.000000	1.244396
4044.000000	1.244329
4042.000000	1.244395
4040.000000	1.244435
4038.000000	1.244392
4036.000000	1.244315
4034.000000	1.244263
4032.000000	1.244260
4030.000000	1.244251
4028.000000	1.244174
4026.000000	1.244100
4024.000000	1.244064
4022.000000	1.244012
4020.000000	1.244003
4018.000000	1.244112
4016.000000	1.244125
4014.000000	1.243959
4012.000000	1.243839
4010.000000	1.243848
4008.000000	1.243889
4006.000000	1.243915
4004.000000	1.243951
4002.000000	1.244044
4000.000000	1.244093
3998.000000	1.243978
3996.000000	1.243834
3994.000000	1.243857
3992.000000	1.243862
3990.000000	1.243813
3988.000000	1.243833
3986.000000	1.243846
3984.000000	1.243859
3982.000000	1.243871
3980.000000	1.243782
3978.000000	1.243662
3976.000000	1.243554
3974.000000	1.243461
3972.000000	1.243448
3970.000000	1.243545
3968.000000	1.243588
3966.000000	1.243508
3964.000000	1.243378
3962.000000	1.243335
3960.000000	1.243415
3958.000000	1.243439
3956.000000	1.243315
3954.000000	1.243138
3952.000000	1.242895
3950.000000	1.242748
3948.000000	1.242838
3946.000000	1.242735
3944.000000	1.242461
3942.000000	1.242770
3940.000000	1.243263
3938.000000	1.243199
3936.000000	1.242675
3934.000000	1.242119
3932.000000	1.242245
3930.000000	1.242793
3928.000000	1.242682
3926.000000	1.242319
3924.000000	1.242400
3922.000000	1.242254
3920.000000	1.241629
3918.000000	1.241588
3916.000000	1.242469
3914.000000	1.243102
3912.000000	1.242985
3910.000000	1.242568
3908.000000	1.241318
3906.000000	1.239329
3904.000000	1.238623
3902.000000	1.239607
3900.000000	1.241159
3898.000000	1.242769
3896.000000	1.242895
3894.000000	1.241024
3892.000000	1.240197
3890.000000	1.241134
3888.000000	1.240206
3886.000000	1.239360
3884.000000	1.240849
3882.000000	1.241079
3880.000000	1.241181
3878.000000	1.241965
3876.000000	1.241039
3874.000000	1.239509
3872.000000	1.237927
3870.000000	1.238322
3868.000000	1.240425
3866.000000	1.240260
3864.000000	1.240064
3862.000000	1.241406
3860.000000	1.241557
3858.000000	1.237852
3856.000000	1.230772
3854.000000	1.230228
3852.000000	1.239093
3850.000000	1.244608
3848.000000	1.243060
3846.000000	1.240578
3844.000000	1.239400
3842.000000	1.238095
3840.000000	1.235594
3838.000000	1.235863
3836.000000	1.239598
3834.000000	1.241089
3832.000000	1.240724
3830.000000	1.241061
3828.000000	1.240912
3826.000000	1.240116
3824.000000	1.237878
3822.000000	1.236444
3820.000000	1.237832
3818.000000	1.237346
3816.000000	1.237821
3814.000000	1.241788
3812.000000	1.242328
3810.000000	1.238982
3808.000000	1.237048
3806.000000	1.238255
3804.000000	1.237232
3802.000000	1.235813
3800.000000	1.239292
3798.000000	1.241364
3796.000000	1.240892
3794.000000	1.241357
3792.000000	1.241358
3790.000000	1.240941
3788.000000	1.240642
3786.000000	1.240460
3784.000000	1.240523
3782.000000	1.240037
3780.000000	1.239648
3778.000000	1.240525
3776.000000	1.241107
3774.000000	1.240245
3772.000000	1.238704
3770.000000	1.238450
3768.000000	1.239439
3766.000000	1.239955
3764.000000	1.240019
3762.000000	1.239174
3760.000000	1.238427
3758.000000	1.238942
3756.000000	1.237597
3754.000000	1.233065
3752.000000	1.230772
3750.000000	1.233874
3748.000000	1.235112
3746.000000	1.231642
3744.000000	1.234409
3742.000000	1.240722
3740.000000	1.238987
3738.000000	1.234454
3736.000000	1.234054
3734.000000	1.235987
3732.000000	1.238015
3730.000000	1.239312
3728.000000	1.238485
3726.000000	1.237745
3724.000000	1.238104
3722.000000	1.238422
3720.000000	1.238855
3718.000000	1.238951
3716.000000	1.237533
3714.000000	1.234778
3712.000000	1.234574
3710.000000	1.237543
3708.000000	1.239522
3706.000000	1.239170
3704.000000	1.237725
3702.000000	1.237398
3700.000000	1.238505
3698.000000	1.238851
3696.000000	1.238202
3694.000000	1.236727
3692.000000	1.233901
3690.000000	1.232114
3688.000000	1.235321
3686.000000	1.239514
3684.000000	1.239203
3682.000000	1.237327
3680.000000	1.235297
3678.000000	1.231653
3676.000000	1.231007
3674.000000	1.234089
3672.000000	1.233596
3670.000000	1.233892
3668.000000	1.237601
3666.000000	1.238501
3664.000000	1.237461
3662.000000	1.236859
3660.000000	1.235794
3658.000000	1.234118
3656.000000	1.234498
3654.000000	1.234798
3652.000000	1.231234
3650.000000	1.229538
3648.000000	1.233286
3646.000000	1.236760
3644.000000	1.236921
3642.000000	1.236101
3640.000000	1.235704
3638.000000	1.235358
3636.000000	1.234776
3634.000000	1.233825
3632.000000	1.231065
3630.000000	1.228938
3628.000000	1.232467
3626.000000	1.236087
3624.000000	1.234978
3622.000000	1.232408
3620.000000	1.231430
3618.000000	1.232837
3616.000000	1.233476
3614.000000	1.232475
3612.000000	1.231838
3610.000000	1.231771
3608.000000	1.232892
3606.000000	1.234194
3604.000000	1.233936
3602.000000	1.233162
3600.000000	1.232938
3598.000000	1.232799
3596.000000	1.232579
3594.000000	1.232832
3592.000000	1.232499
3590.000000	1.230916
3588.000000	1.230681
3586.000000	1.232427
3584.000000	1.233292
3582.000000	1.232894
3580.000000	1.232630
3578.000000	1.232610
3576.000000	1.232550
3574.000000	1.232516
3572.000000	1.231975
3570.000000	1.230517
3568.000000	1.229936
3566.000000	1.231328
3564.000000	1.232430
3562.000000	1.232316
3560.000000	1.232134
3558.000000	1.232213
3556.000000	1.232126
3554.000000	1.231888
3552.000000	1.231983
3550.000000	1.231948
3548.000000	1.231478
3546.000000	1.231538
3544.000000	1.232115
3542.000000	1.232411
3540.000000	1.232358
3538.000000	1.232246
3536.000000	1.232333
3534.000000	1.232474
3532.000000	1.232306
3530.000000	1.232132
3528.000000	1.232263
3526.000000	1.232388
3524.000000	1.232372
3522.000000	1.232549
3520.000000	1.232734
3518.000000	1.232807
3516.000000	1.232939
3514.000000	1.233013
3512.000000	1.233004
3510.000000	1.233088
3508.000000	1.233291
3506.000000	1.233279
3504.000000	1.233211
3502.000000	1.233509
3500.000000	1.233836
3498.000000	1.233914
3496.000000	1.234042
3494.000000	1.234288
3492.000000	1.234424
3490.000000	1.234542
3488.000000	1.234789
3486.000000	1.234996
3484.000000	1.235131
3482.000000	1.235409
3480.000000	1.235774
3478.000000	1.236072
3476.000000	1.236325
3474.000000	1.236650
3472.000000	1.236973
3470.000000	1.237142
3468.000000	1.237324
3466.000000	1.237686
3464.000000	1.238098
3462.000000	1.238489
3460.000000	1.238878
3458.000000	1.239212
3456.000000	1.239543
3454.000000	1.239897
3452.000000	1.240189
3450.000000	1.240443
3448.000000	1.240820
3446.000000	1.241467
3444.000000	1.242069
3442.000000	1.242544
3440.000000	1.243051
3438.000000	1.243539
3436.000000	1.244027
3434.000000	1.244536
3432.000000	1.245038
3430.000000	1.245545
3428.000000	1.246092
3426.000000	1.246633
3424.000000	1.246955
3422.000000	1.247190
3420.000000	1.247629
3418.000000	1.248149
3416.000000	1.248490
3414.000000	1.248707
3412.000000	1.249021
3410.000000	1.249339
3408.000000	1.249594
3406.000000	1.249867
3404.000000	1.250085
3402.000000	1.250275
3400.000000	1.250503
3398.000000	1.250822
3396.000000	1.251156
3394.000000	1.251262
3392.000000	1.251347
3390.000000	1.251638
3388.000000	1.251904
3386.000000	1.252044
3384.000000	1.252207
3382.000000	1.252429
3380.000000	1.252577
3378.000000	1.252678
3376.000000	1.252826
3374.000000	1.253044
3372.000000	1.253141
3370.000000	1.253109
3368.000000	1.253205
3366.000000	1.253430
3364.000000	1.253611
3362.000000	1.253759
3360.000000	1.253913
3358.000000	1.254010
3356.000000	1.254067
3354.000000	1.254056
3352.000000	1.254098
3350.000000	1.254266
3348.000000	1.254402
3346.000000	1.254462
3344.000000	1.254527
3342.000000	1.254543
3340.000000	1.254528
3338.000000	1.254615
3336.000000	1.254763
3334.000000	1.254854
3332.000000	1.254864
3330.000000	1.254875
3328.000000	1.254960
3326.000000	1.255016
3324.000000	1.255002
3322.000000	1.255011
3320.000000	1.255110
3318.000000	1.255267
3316.000000	1.255352
3314.000000	1.255363
3312.000000	1.255370
3310.000000	1.255388
3308.000000	1.255376
3306.000000	1.255418
3304.000000	1.255620
3302.000000	1.255827
3300.000000	1.255904
3298.000000	1.255909
3296.000000	1.255925
3294.000000	1.255901
3292.000000	1.255869
3290.000000	1.256016
3288.000000	1.256230
3286.000000	1.256323
3284.000000	1.256294
3282.000000	1.256230
3280.000000	1.256223
3278.000000	1.256377
3276.000000	1.256570
3274.000000	1.256667
3272.000000	1.256718
3270.000000	1.256730
3268.000000	1.256779
3266.000000	1.256882
3264.000000	1.256982
3262.000000	1.257044
3260.000000	1.257073
3258.000000	1.257128
3256.000000	1.257230
3254.000000	1.257383
3252.000000	1.257474
3250.000000	1.257462
3248.000000	1.257466
3246.000000	1.257511
3244.000000	1.257612
3242.000000	1.257728
3240.000000	1.257830
3238.000000	1.257975
3236.000000	1.258101
3234.000000	1.258145
3232.000000	1.258255
3230.000000	1.258415
3228.000000	1.258529
3226.000000	1.258602
3224.000000	1.258611
3222.000000	1.258673
3220.000000	1.258839
3218.000000	1.258982
3216.000000	1.259026
3214.000000	1.259040
3212.000000	1.259057
3210.000000	1.259152
3208.000000	1.259245
3206.000000	1.259265
3204.000000	1.259339
3202.000000	1.259383
3200.000000	1.259364
3198.000000	1.259382
3196.000000	1.259427
3194.000000	1.259456
3192.000000	1.259448
3190.000000	1.259537
3188.000000	1.259670
3186.000000	1.259712
3184.000000	1.259735
3182.000000	1.259762
3180.000000	1.259723
3178.000000	1.259753
3176.000000	1.259812
3174.000000	1.259813
3172.000000	1.259848
3170.000000	1.259854
3168.000000	1.259850
3166.000000	1.259953
3164.000000	1.260071
3162.000000	1.260151
3160.000000	1.260191
3158.000000	1.260220
3156.000000	1.260286
3154.000000	1.260319
3152.000000	1.260383
3150.000000	1.260518
3148.000000	1.260624
3146.000000	1.260651
3144.000000	1.260594
3142.000000	1.260604
3140.000000	1.260756
3138.000000	1.260904
3136.000000	1.260970
3134.000000	1.260996
3132.000000	1.261075
3130.000000	1.261178
3128.000000	1.261249
3126.000000	1.261340
3124.000000	1.261413
3122.000000	1.261436
3120.000000	1.261439
3118.000000	1.261447
3116.000000	1.261485
3114.000000	1.261552
3112.000000	1.261603
3110.000000	1.261635
3108.000000	1.261638
3106.000000	1.261721
3104.000000	1.261834
3102.000000	1.261835
3100.000000	1.261845
3098.000000	1.261845
3096.000000	1.261846
3094.000000	1.261818
3092.000000	1.261751
3090.000000	1.261720
3088.000000	1.261708
3086.000000	1.261681
3084.000000	1.261650
3082.000000	1.261540
3080.000000	1.261380
3078.000000	1.261289
3076.000000	1.261258
3074.000000	1.261285
3072.000000	1.261264
3070.000000	1.261144
3068.000000	1.261095
3066.000000	1.261113
3064.000000	1.261148
3062.000000	1.261151
3060.000000	1.261051
3058.000000	1.260932
3056.000000	1.260850
3054.000000	1.260798
3052.000000	1.260776
3050.000000	1.260723
3048.000000	1.260656
3046.000000	1.260621
3044.000000	1.260586
3042.000000	1.260493
3040.000000	1.260400
3038.000000	1.260383
3036.000000	1.260347
3034.000000	1.260323
3032.000000	1.260322
3030.000000	1.260245
3028.000000	1.260118
3026.000000	1.260017
3024.000000	1.259966
3022.000000	1.259964
3020.000000	1.260054
3018.000000	1.260248
3016.000000	1.260514
3014.000000	1.260715
3012.000000	1.260762
3010.000000	1.260710
3008.000000	1.260610
3006.000000	1.260407
3004.000000	1.260218
3002.000000	1.260161
3000.000000	1.260146
2998.000000	1.260032
2996.000000	1.259913
2994.000000	1.259787
2992.000000	1.259651
2990.000000	1.259616
2988.000000	1.259617
2986.000000	1.259601
2984.000000	1.259584
2982.000000	1.259505
2980.000000	1.259462
2978.000000	1.259426
2976.000000	1.259284
2974.000000	1.259183
2972.000000	1.259185
2970.000000	1.259222
2968.000000	1.259481
2966.000000	1.260042
2964.000000	1.260778
2962.000000	1.261447
2960.000000	1.261816
2958.000000	1.261822
2956.000000	1.261567
2954.000000	1.261118
2952.000000	1.260584
2950.000000	1.260057
2948.000000	1.259439
2946.000000	1.258805
2944.000000	1.258386
2942.000000	1.258134
2940.000000	1.257951
2938.000000	1.257875
2936.000000	1.257962
2934.000000	1.258120
2932.000000	1.258169
2930.000000	1.258128
2928.000000	1.258315
2926.000000	1.258971
2924.000000	1.259998
2922.000000	1.260900
2920.000000	1.261479
2918.000000	1.261764
2916.000000	1.261707
2914.000000	1.261408
2912.000000	1.260950
2910.000000	1.260525
2908.000000	1.260231
2906.000000	1.260029
2904.000000	1.259904
2902.000000	1.259879
2900.000000	1.259838
2898.000000	1.259694
2896.000000	1.259563
2894.000000	1.259497
2892.000000	1.259394
2890.000000	1.259230
2888.000000	1.259106
2886.000000	1.258982
2884.000000	1.258796
2882.000000	1.258599
2880.000000	1.258407
2878.000000	1.258236
2876.000000	1.258061
2874.000000	1.257853
2872.000000	1.257605
2870.000000	1.257202
2868.000000	1.256752
2866.000000	1.256532
2864.000000	1.256710
2862.000000	1.257279
2860.000000	1.258039
2858.000000	1.258638
2856.000000	1.258862
2854.000000	1.258998
2852.000000	1.259300
2850.000000	1.259661
2848.000000	1.259921
2846.000000	1.259867
2844.000000	1.259498
2842.000000	1.259102
2840.000000	1.258840
2838.000000	1.258655
2836.000000	1.258545
2834.000000	1.258497
2832.000000	1.258427
2830.000000	1.258307
2828.000000	1.258238
2826.000000	1.258301
2824.000000	1.258319
2822.000000	1.258235
2820.000000	1.258148
2818.000000	1.258095
2816.000000	1.258040
2814.000000	1.257978
2812.000000	1.257975
2810.000000	1.258007
2808.000000	1.258001
2806.000000	1.257911
2804.000000	1.257857
2802.000000	1.257869
2800.000000	1.257831
2798.000000	1.257721
2796.000000	1.257655
2794.000000	1.257658
2792.000000	1.257745
2790.000000	1.257834
2788.000000	1.257832
2786.000000	1.257814
2784.000000	1.257845
2782.000000	1.257813
2780.000000	1.257754
2778.000000	1.257750
2776.000000	1.257726
2774.000000	1.257621
2772.000000	1.257565
2770.000000	1.257559
2768.000000	1.257587
2766.000000	1.257609
2764.000000	1.257630
2762.000000	1.257625
2760.000000	1.257597
2758.000000	1.257546
2756.000000	1.257563
2754.000000	1.257572
2752.000000	1.257558
2750.000000	1.257582
2748.000000	1.257622
2746.000000	1.257693
2744.000000	1.257674
2742.000000	1.257575
2740.000000	1.257619
2738.000000	1.257670
2736.000000	1.257643
2734.000000	1.257659
2732.000000	1.257736
2730.000000	1.257751
2728.000000	1.257768
2726.000000	1.257825
2724.000000	1.257811
2722.000000	1.257813
2720.000000	1.257926
2718.000000	1.257996
2716.000000	1.258018
2714.000000	1.258043
2712.000000	1.258134
2710.000000	1.258220
2708.000000	1.258214
2706.000000	1.258258
2704.000000	1.258336
2702.000000	1.258393
2700.000000	1.258485
2698.000000	1.258539
2696.000000	1.258640
2694.000000	1.258782
2692.000000	1.258858
2690.000000	1.258893
2688.000000	1.258911
2686.000000	1.258948
2684.000000	1.259033
2682.000000	1.259137
2680.000000	1.259287
2678.000000	1.259425
2676.000000	1.259512
2674.000000	1.259565
2672.000000	1.259634
2670.000000	1.259720
2668.000000	1.259809
2666.000000	1.259860
2664.000000	1.259911
2662.000000	1.260012
2660.000000	1.260120
2658.000000	1.260188
2656.000000	1.260252
2654.000000	1.260343
2652.000000	1.260456
2650.000000	1.260561
2648.000000	1.260601
2646.000000	1.260555
2644.000000	1.260604
2642.000000	1.260725
2640.000000	1.260788
2638.000000	1.260845
2636.000000	1.260907
2634.000000	1.260924
2632.000000	1.260906
2630.000000	1.260926
2628.000000	1.261022
2626.000000	1.261081
2624.000000	1.261053
2622.000000	1.261035
2620.000000	1.261049
2618.000000	1.261095
2616.000000	1.261184
2614.000000	1.261219
2612.000000	1.261197
2610.000000	1.261180
2608.000000	1.261236
2606.000000	1.261310
2604.000000	1.261353
2602.000000	1.261368
2600.000000	1.261404
2598.000000	1.261451
2596.000000	1.261498
2594.000000	1.261492
2592.000000	1.261567
2590.000000	1.261670
2588.000000	1.261676
2586.000000	1.261691
2584.000000	1.261747
2582.000000	1.261804
2580.000000	1.261897
2578.000000	1.261918
2576.000000	1.261859
2574.000000	1.261878
2572.000000	1.261964
2570.000000	1.261964
2568.000000	1.261953
2566.000000	1.262028
2564.000000	1.262069
2562.000000	1.262040
2560.000000	1.262028
2558.000000	1.262030
2556.000000	1.262048
2554.000000	1.262119
2552.000000	1.262169
2550.000000	1.262197
2548.000000	1.262171
2546.000000	1.262101
2544.000000	1.262105
2542.000000	1.262127
2540.000000	1.262151
2538.000000	1.262174
2536.000000	1.262182
2534.000000	1.262169
2532.000000	1.262189
2530.000000	1.262201
2528.000000	1.262216
2526.000000	1.262229
2524.000000	1.262196
2522.000000	1.262106
2520.000000	1.262072
2518.000000	1.262150
2516.000000	1.262208
2514.000000	1.262181
2512.000000	1.262140
2510.000000	1.262131
2508.000000	1.262165
2506.000000	1.262174
2504.000000	1.262213
2502.000000	1.262256
2500.000000	1.262261
2498.000000	1.262241
2496.000000	1.262176
2494.000000	1.262169
2492.000000	1.262238
2490.000000	1.262207
2488.000000	1.262179
2486.000000	1.262208
2484.000000	1.262235
2482.000000	1.262238
2480.000000	1.262247
2478.000000	1.262233
2476.000000	1.262223
2474.000000	1.262214
2472.000000	1.262274
2470.000000	1.262319
2468.000000	1.262325
2466.000000	1.262317
2464.000000	1.262264
2462.000000	1.262215
2460.000000	1.262253
2458.000000	1.262295
2456.000000	1.262329
2454.000000	1.262336
2452.000000	1.262365
2450.000000	1.262361
2448.000000	1.262332
2446.000000	1.262338
2444.000000	1.262357
2442.000000	1.262346
2440.000000	1.262375
2438.000000	1.262399
2436.000000	1.262431
2434.000000	1.262463
2432.000000	1.262449
2430.000000	1.262416
2428.000000	1.262444
2426.000000	1.262480
2424.000000	1.262524
2422.000000	1.262577
2420.000000	1.262650
2418.000000	1.262738
2416.000000	1.262800
2414.000000	1.262790
2412.000000	1.262761
2410.000000	1.262773
2408.000000	1.262804
2406.000000	1.262771
2404.000000	1.262773
2402.000000	1.262754
2400.000000	1.262667
2398.000000	1.262573
2396.000000	1.262524
2394.000000	1.262519
2392.000000	1.262574
2390.000000	1.262551
2388.000000	1.262486
2386.000000	1.262461
2384.000000	1.262440
2382.000000	1.262251
2380.000000	1.262011
2378.000000	1.261742
2376.000000	1.261415
2374.000000	1.261021
2372.000000	1.260665
2370.000000	1.260335
2368.000000	1.259975
2366.000000	1.259739
2364.000000	1.259707
2362.000000	1.259853
2360.000000	1.260174
2358.000000	1.260564
2356.000000	1.261036
2354.000000	1.261544
2352.000000	1.262044
2350.000000	1.262059
2348.000000	1.261388
2346.000000	1.260791
2344.000000	1.260649
2342.000000	1.260857
2340.000000	1.261227
2338.000000	1.261336
2336.000000	1.261216
2334.000000	1.261078
2332.000000	1.260961
2330.000000	1.260968
2328.000000	1.261137
2326.000000	1.261299
2324.000000	1.261513
2322.000000	1.261688
2320.000000	1.261778
2318.000000	1.261882
2316.000000	1.262024
2314.000000	1.262149
2312.000000	1.262276
2310.000000	1.262368
2308.000000	1.262399
2306.000000	1.262445
2304.000000	1.262483
2302.000000	1.262482
2300.000000	1.262492
2298.000000	1.262502
2296.000000	1.262572
2294.000000	1.262628
2292.000000	1.262664
2290.000000	1.262669
2288.000000	1.262713
2286.000000	1.262769
2284.000000	1.262752
2282.000000	1.262749
2280.000000	1.262807
2278.000000	1.262829
2276.000000	1.262818
2274.000000	1.262799
2272.000000	1.262777
2270.000000	1.262720
2268.000000	1.262721
2266.000000	1.262718
2264.000000	1.262667
2262.000000	1.262546
2260.000000	1.262531
2258.000000	1.262501
2256.000000	1.262426
2254.000000	1.262414
2252.000000	1.262474
2250.000000	1.262475
2248.000000	1.262450
2246.000000	1.262479
2244.000000	1.262464
2242.000000	1.262357
2240.000000	1.262354
2238.000000	1.262356
2236.000000	1.262263
2234.000000	1.262200
2232.000000	1.262149
2230.000000	1.262104
2228.000000	1.262100
2226.000000	1.262024
2224.000000	1.261992
2222.000000	1.262032
2220.000000	1.261994
2218.000000	1.261813
2216.000000	1.261715
2214.000000	1.261691
2212.000000	1.261701
2210.000000	1.261687
2208.000000	1.261588
2206.000000	1.261509
2204.000000	1.261550
2202.000000	1.261517
2200.000000	1.261450
2198.000000	1.261452
2196.000000	1.261429
2194.000000	1.261346
2192.000000	1.261310
2190.000000	1.261292
2188.000000	1.261243
2186.000000	1.261190
2184.000000	1.261208
2182.000000	1.261140
2180.000000	1.261074
2178.000000	1.261090
2176.000000	1.261091
2174.000000	1.260968
2172.000000	1.260859
2170.000000	1.260823
2168.000000	1.260834
2166.000000	1.260773
2164.000000	1.260758
2162.000000	1.260712
2160.000000	1.260646
2158.000000	1.260610
2156.000000	1.260593
2154.000000	1.260520
2152.000000	1.260476
2150.000000	1.260484
2148.000000	1.260476
2146.000000	1.260426
2144.000000	1.260387
2142.000000	1.260307
2140.000000	1.260278
2138.000000	1.260266
2136.000000	1.260262
2134.000000	1.260145
2132.000000	1.260070
2130.000000	1.260059
2128.000000	1.260023
2126.000000	1.259930
2124.000000	1.259892
2122.000000	1.259848
2120.000000	1.259852
2118.000000	1.259902
2116.000000	1.259893
2114.000000	1.259833
2112.000000	1.259781
2110.000000	1.259760
2108.000000	1.259784
2106.000000	1.259739
2104.000000	1.259668
2102.000000	1.259652
2100.000000	1.259644
2098.000000	1.259584
2096.000000	1.259521
2094.000000	1.259503
2092.000000	1.259533
2090.000000	1.259524
2088.000000	1.259561
2086.000000	1.259525
2084.000000	1.259451
2082.000000	1.259395
2080.000000	1.259399
2078.000000	1.259360
2076.000000	1.259360
2074.000000	1.259364
2072.000000	1.259292
2070.000000	1.259202
2068.000000	1.259229
2066.000000	1.259189
2064.000000	1.259164
2062.000000	1.259115
2060.000000	1.259100
2058.000000	1.259121
2056.000000	1.259145
2054.000000	1.259106
2052.000000	1.259058
2050.000000	1.259033
2048.000000	1.259048
2046.000000	1.259001
2044.000000	1.258905
2042.000000	1.258780
2040.000000	1.258796
2038.000000	1.258789
2036.000000	1.258792
2034.000000	1.258794
2032.000000	1.258702
2030.000000	1.258633
2028.000000	1.258709
2026.000000	1.258658
2024.000000	1.258536
2022.000000	1.258459
2020.000000	1.258392
2018.000000	1.258280
2016.000000	1.258378
2014.000000	1.258473
2012.000000	1.258476
2010.000000	1.258422
2008.000000	1.258446
2006.000000	1.258483
2004.000000	1.258480
2002.000000	1.258384
2000.000000	1.258334
1998.000000	1.258322
1996.000000	1.258233
1994.000000	1.257933
1992.000000	1.257919
1990.000000	1.258162
1988.000000	1.258220
1986.000000	1.258179
1984.000000	1.258122
1982.000000	1.258122
1980.000000	1.258163
1978.000000	1.258163
1976.000000	1.258186
1974.000000	1.258203
1972.000000	1.258196
1970.000000	1.258059
1968.000000	1.257884
1966.000000	1.258017
1964.000000	1.258144
1962.000000	1.258027
1960.000000	1.257991
1958.000000	1.258289
1956.000000	1.258364
1954.000000	1.258199
1952.000000	1.258187
1950.000000	1.258194
1948.000000	1.258151
1946.000000	1.257910
1944.000000	1.257571
1942.000000	1.257756
1940.000000	1.258244
1938.000000	1.258295
1936.000000	1.258295
1934.000000	1.258227
1932.000000	1.258256
1930.000000	1.258281
1928.000000	1.258306
1926.000000	1.258194
1924.000000	1.257989
1922.000000	1.258039
1920.000000	1.257645
1918.000000	1.257577
1916.000000	1.258501
1914.000000	1.258625
1912.000000	1.258434
1910.000000	1.258336
1908.000000	1.258594
1906.000000	1.258730
1904.000000	1.258745
1902.000000	1.258708
1900.000000	1.258792
1898.000000	1.258660
1896.000000	1.258541
1894.000000	1.258659
1892.000000	1.258484
1890.000000	1.258138
1888.000000	1.258620
1886.000000	1.258749
1884.000000	1.258774
1882.000000	1.258824
1880.000000	1.258862
1878.000000	1.258800
1876.000000	1.258859
1874.000000	1.258795
1872.000000	1.258137
1870.000000	1.257152
1868.000000	1.257896
1866.000000	1.258785
1864.000000	1.258902
1862.000000	1.258790
1860.000000	1.258812
1858.000000	1.258750
1856.000000	1.258790
1854.000000	1.258723
1852.000000	1.258721
1850.000000	1.258533
1848.000000	1.258030
1846.000000	1.256268
1844.000000	1.256478
1842.000000	1.258658
1840.000000	1.258881
1838.000000	1.258624
1836.000000	1.258729
1834.000000	1.258515
1832.000000	1.257449
1830.000000	1.257239
1828.000000	1.258166
1826.000000	1.257901
1824.000000	1.258525
1822.000000	1.259142
1820.000000	1.259095
1818.000000	1.258994
1816.000000	1.259116
1814.000000	1.258864
1812.000000	1.258492
1810.000000	1.258669
1808.000000	1.259067
1806.000000	1.258964
1804.000000	1.258503
1802.000000	1.257864
1800.000000	1.258150
1798.000000	1.258612
1796.000000	1.258054
1794.000000	1.256165
1792.000000	1.256731
1790.000000	1.258831
1788.000000	1.258909
1786.000000	1.258186
1784.000000	1.258557
1782.000000	1.258652
1780.000000	1.258810
1778.000000	1.258914
1776.000000	1.257630
1774.000000	1.254936
1772.000000	1.255613
1770.000000	1.257726
1768.000000	1.258160
1766.000000	1.259201
1764.000000	1.258053
1762.000000	1.257487
1760.000000	1.258632
1758.000000	1.258269
1756.000000	1.258629
1754.000000	1.257953
1752.000000	1.255889
1750.000000	1.257022
1748.000000	1.258413
1746.000000	1.258816
1744.000000	1.258603
1742.000000	1.257765
1740.000000	1.257586
1738.000000	1.258155
1736.000000	1.253750
1734.000000	1.253129
1732.000000	1.258673
1730.000000	1.260004
1728.000000	1.260282
1726.000000	1.260249
1724.000000	1.260087
1722.000000	1.259415
1720.000000	1.255701
1718.000000	1.253105
1716.000000	1.256934
1714.000000	1.259742
1712.000000	1.260582
1710.000000	1.260053
1708.000000	1.259057
1706.000000	1.258221
1704.000000	1.258019
1702.000000	1.252864
1700.000000	1.252894
1698.000000	1.254893
1696.000000	1.254711
1694.000000	1.260342
1692.000000	1.261275
1690.000000	1.260219
1688.000000	1.258202
1686.000000	1.252502
1684.000000	1.254462
1682.000000	1.260667
1680.000000	1.261112
1678.000000	1.259568
1676.000000	1.257635
1674.000000	1.259481
1672.000000	1.259097
1670.000000	1.258067
1668.000000	1.260528
1666.000000	1.261386
1664.000000	1.259698
1662.000000	1.260530
1660.000000	1.261963
1658.000000	1.261176
1656.000000	1.255243
1654.000000	1.248160
1652.000000	1.255378
1650.000000	1.261075
1648.000000	1.257318
1646.000000	1.258196
1644.000000	1.262065
1642.000000	1.262569
1640.000000	1.261539
1638.000000	1.258097
1636.000000	1.256291
1634.000000	1.261007
1632.000000	1.263043
1630.000000	1.261931
1628.000000	1.261495
1626.000000	1.260923
1624.000000	1.259943
1622.000000	1.261330
1620.000000	1.260766
1618.000000	1.257088
1616.000000	1.259099
1614.000000	1.262757
1612.000000	1.262354
1610.000000	1.262441
1608.000000	1.263072
1606.000000	1.263804
1604.000000	1.263966
1602.000000	1.264154
1600.000000	1.264230
1598.000000	1.264232
1596.000000	1.264087
1594.000000	1.264152
1592.000000	1.264115
1590.000000	1.264066
1588.000000	1.264070
1586.000000	1.264132
1584.000000	1.264097
1582.000000	1.264169
1580.000000	1.263213
1578.000000	1.259031
1576.000000	1.258952
1574.000000	1.263656
1572.000000	1.262469
1570.000000	1.261217
1568.000000	1.263045
1566.000000	1.263462
1564.000000	1.262440
1562.000000	1.257022
1560.000000	1.250799
1558.000000	1.256210
1556.000000	1.261243
1554.000000	1.262119
1552.000000	1.263454
1550.000000	1.263662
1548.000000	1.263487
1546.000000	1.261639
1544.000000	1.259172
1542.000000	1.255226
1540.000000	1.254902
1538.000000	1.261701
1536.000000	1.263332
1534.000000	1.261454
1532.000000	1.263237
1530.000000	1.263486
1528.000000	1.261895
1526.000000	1.261033
1524.000000	1.259367
1522.000000	1.257110
1520.000000	1.259922
1518.000000	1.261264
1516.000000	1.261912
1514.000000	1.262644
1512.000000	1.262178
1510.000000	1.259672
1508.000000	1.254350
1506.000000	1.256278
1504.000000	1.262265
1502.000000	1.261585
1500.000000	1.258066
1498.000000	1.255524
1496.000000	1.258285
1494.000000	1.263950
1492.000000	1.265116
1490.000000	1.264965
1488.000000	1.265685
1486.000000	1.266033
1484.000000	1.265725
1482.000000	1.264854
1480.000000	1.264485
1478.000000	1.263119
1476.000000	1.261282
1474.000000	1.259234
1472.000000	1.260766
1470.000000	1.263788
1468.000000	1.263425
1466.000000	1.261731
1464.000000	1.262540
1462.000000	1.263113
1460.000000	1.259395
1458.000000	1.254759
1456.000000	1.257809
1454.000000	1.262260
1452.000000	1.263107
1450.000000	1.264138
1448.000000	1.264732
1446.000000	1.265032
1444.000000	1.264433
1442.000000	1.264077
1440.000000	1.262809
1438.000000	1.260116
1436.000000	1.261293
1434.000000	1.263780
1432.000000	1.263038
1430.000000	1.262931
1428.000000	1.263574
1426.000000	1.263368
1424.000000	1.262877
1422.000000	1.261569
1420.000000	1.259405
1418.000000	1.261598
1416.000000	1.263407
1414.000000	1.263419
1412.000000	1.263080
1410.000000	1.262832
1408.000000	1.262243
1406.000000	1.261982
1404.000000	1.262869
1402.000000	1.263570
1400.000000	1.263068
1398.000000	1.263186
1396.000000	1.262513
1394.000000	1.262943
1392.000000	1.263773
1390.000000	1.262719
1388.000000	1.261552
1386.000000	1.262437
1384.000000	1.263394
1382.000000	1.263658
1380.000000	1.263321
1378.000000	1.263024
1376.000000	1.262472
1374.000000	1.262296
1372.000000	1.262774
1370.000000	1.262799
1368.000000	1.262772
1366.000000	1.262559
1364.000000	1.261758
1362.000000	1.261886
1360.000000	1.262552
1358.000000	1.262744
1356.000000	1.262652
1354.000000	1.262615
1352.000000	1.262456
1350.000000	1.262379
1348.000000	1.262410
1346.000000	1.262398
1344.000000	1.262246
1342.000000	1.261855
1340.000000	1.261539
1338.000000	1.261871
1336.000000	1.262163
1334.000000	1.262270
1332.000000	1.262176
1330.000000	1.262093
1328.000000	1.261972
1326.000000	1.261884
1324.000000	1.261766
1322.000000	1.261600
1320.000000	1.261334
1318.000000	1.261325
1316.000000	1.261257
1314.000000	1.261068
1312.000000	1.261099
1310.000000	1.261175
1308.000000	1.261004
1306.000000	1.260972
1304.000000	1.260898
1302.000000	1.260822
1300.000000	1.260742
1298.000000	1.260745
1296.000000	1.260664
1294.000000	1.260622
1292.000000	1.260488
1290.000000	1.260320
1288.000000	1.260210
1286.000000	1.260333
1284.000000	1.260395
1282.000000	1.260365
1280.000000	1.260320
1278.000000	1.260369
1276.000000	1.260418
1274.000000	1.260508
1272.000000	1.260590
1270.000000	1.260822
1268.000000	1.261261
1266.000000	1.262370
1264.000000	1.264334
1262.000000	1.266992
1260.000000	1.269186
1258.000000	1.269957
1256.000000	1.268976
1254.000000	1.266984
1252.000000	1.265150
1250.000000	1.264125
1248.000000	1.263627
1246.000000	1.263535
1244.000000	1.263508
1242.000000	1.263596
1240.000000	1.263888
1238.000000	1.264291
1236.000000	1.264674
1234.000000	1.264947
1232.000000	1.265126
1230.000000	1.265411
1228.000000	1.265579
1226.000000	1.265723
1224.000000	1.266031
1222.000000	1.266304
1220.000000	1.266412
1218.000000	1.266635
1216.000000	1.266939
1214.000000	1.267259
1212.000000	1.267524
1210.000000	1.267853
1208.000000	1.268099
1206.000000	1.268453
1204.000000	1.268672
1202.000000	1.268958
1200.000000	1.269346
1198.000000	1.269706
1196.000000	1.269968
1194.000000	1.270232
1192.000000	1.270546
1190.000000	1.271074
1188.000000	1.271377
1186.000000	1.271470
1184.000000	1.271229
1182.000000	1.271396
1180.000000	1.272563
1178.000000	1.273568
1176.000000	1.273731
1174.000000	1.273934
1172.000000	1.274193
1170.000000	1.274621
1168.000000	1.275077
1166.000000	1.275461
1164.000000	1.275701
1162.000000	1.276068
1160.000000	1.276437
1158.000000	1.276915
1156.000000	1.277271
1154.000000	1.277616
1152.000000	1.277885
1150.000000	1.278269
1148.000000	1.278651
1146.000000	1.278930
1144.000000	1.279129
1142.000000	1.279570
1140.000000	1.280104
1138.000000	1.280481
1136.000000	1.280625
1134.000000	1.280776
1132.000000	1.280711
1130.000000	1.280866
1128.000000	1.281111
1126.000000	1.281482
1124.000000	1.281762
1122.000000	1.282010
1120.000000	1.282176
1118.000000	1.282666
1116.000000	1.283042
1114.000000	1.283404
1112.000000	1.283931
1110.000000	1.284490
1108.000000	1.284995
1106.000000	1.285572
1104.000000	1.285887
1102.000000	1.286077
1100.000000	1.286533
1098.000000	1.287080
1096.000000	1.287215
1094.000000	1.287520
1092.000000	1.287848
1090.000000	1.287978
1088.000000	1.287822
1086.000000	1.287505
1084.000000	1.287085
1082.000000	1.286747
1080.000000	1.286416
1078.000000	1.286382
1076.000000	1.286320
1074.000000	1.286419
1072.000000	1.285909
1070.000000	1.285446
1068.000000	1.285143
1066.000000	1.284737
1064.000000	1.283830
1062.000000	1.282999
1060.000000	1.282616
1058.000000	1.282012
1056.000000	1.280667
1054.000000	1.279689
1052.000000	1.279832
1050.000000	1.281173
1048.000000	1.282176
1046.000000	1.282143
1044.000000	1.280888
1042.000000	1.279685
1040.000000	1.278837
1038.000000	1.278376
1036.000000	1.277933
1034.000000	1.277253
1032.000000	1.276566
1030.000000	1.276273
1028.000000	1.276518
1026.000000	1.276129
1024.000000	1.275112
1022.000000	1.274633
1020.000000	1.274281
1018.000000	1.274372
1016.000000	1.274092
1014.000000	1.272852
1012.000000	1.270896
1010.000000	1.269330
1008.000000	1.267391
1006.000000	1.264920
1004.000000	1.262912
1002.000000	1.260304
1000.000000	1.258712
