PE IR       SUBTECH     SPECTRUM    ASCII       PEDS        4.00        
   -1
TE109A_085_80K_after_160K.ASC
20/04/21
21:56:00.00
20/04/21
21:56:01.00
Administrator
TE109A, Tuesday, April 21 2020, 085.
1000.000000
#HDR
-1
-1
#GR
cm-1
A
1.0
0.0
6000.000000
-2.000000
2501
8
0.960842
0.886081
#DATA
6000.000000	0.891785
5998.000000	0.891919
5996.000000	0.891793
5994.000000	0.891665
5992.000000	0.891405
5990.000000	0.891395
5988.000000	0.891674
5986.000000	0.891857
5984.000000	0.891808
5982.000000	0.891489
5980.000000	0.891482
5978.000000	0.891652
5976.000000	0.891621
5974.000000	0.891544
5972.000000	0.891453
5970.000000	0.891784
5968.000000	0.892273
5966.000000	0.892278
5964.000000	0.892095
5962.000000	0.891829
5960.000000	0.891565
5958.000000	0.891541
5956.000000	0.891372
5954.000000	0.891228
5952.000000	0.891134
5950.000000	0.890876
5948.000000	0.891059
5946.000000	0.891619
5944.000000	0.891925
5942.000000	0.891758
5940.000000	0.891332
5938.000000	0.891212
5936.000000	0.891398
5934.000000	0.891700
5932.000000	0.891668
5930.000000	0.891657
5928.000000	0.891493
5926.000000	0.891340
5924.000000	0.891525
5922.000000	0.891959
5920.000000	0.892515
5918.000000	0.892634
5916.000000	0.892205
5914.000000	0.891836
5912.000000	0.891650
5910.000000	0.891551
5908.000000	0.891480
5906.000000	0.891718
5904.000000	0.892083
5902.000000	0.892159
5900.000000	0.891983
5898.000000	0.891822
5896.000000	0.891740
5894.000000	0.891840
5892.000000	0.891875
5890.000000	0.891980
5888.000000	0.892008
5886.000000	0.892033
5884.000000	0.891982
5882.000000	0.891808
5880.000000	0.891908
5878.000000	0.892131
5876.000000	0.892286
5874.000000	0.892009
5872.000000	0.891566
5870.000000	0.891440
5868.000000	0.891435
5866.000000	0.891549
5864.000000	0.891656
5862.000000	0.891844
5860.000000	0.892065
5858.000000	0.892168
5856.000000	0.892106
5854.000000	0.892011
5852.000000	0.891933
5850.000000	0.891864
5848.000000	0.892041
5846.000000	0.892082
5844.000000	0.892010
5842.000000	0.891901
5840.000000	0.891948
5838.000000	0.892069
5836.000000	0.891988
5834.000000	0.891873
5832.000000	0.892077
5830.000000	0.892279
5828.000000	0.892134
5826.000000	0.891781
5824.000000	0.891816
5822.000000	0.892056
5820.000000	0.892097
5818.000000	0.891936
5816.000000	0.891927
5814.000000	0.892105
5812.000000	0.892318
5810.000000	0.892296
5808.000000	0.892320
5806.000000	0.892434
5804.000000	0.892672
5802.000000	0.892873
5800.000000	0.892867
5798.000000	0.892670
5796.000000	0.892621
5794.000000	0.892708
5792.000000	0.892772
5790.000000	0.892692
5788.000000	0.892662
5786.000000	0.892732
5784.000000	0.892770
5782.000000	0.892715
5780.000000	0.892653
5778.000000	0.892420
5776.000000	0.892539
5774.000000	0.892781
5772.000000	0.893180
5770.000000	0.893288
5768.000000	0.892836
5766.000000	0.892438
5764.000000	0.892328
5762.000000	0.892450
5760.000000	0.892555
5758.000000	0.892588
5756.000000	0.892761
5754.000000	0.892838
5752.000000	0.892707
5750.000000	0.892732
5748.000000	0.892900
5746.000000	0.893007
5744.000000	0.892939
5742.000000	0.893046
5740.000000	0.893413
5738.000000	0.893623
5736.000000	0.893591
5734.000000	0.893332
5732.000000	0.893024
5730.000000	0.892787
5728.000000	0.892775
5726.000000	0.892830
5724.000000	0.892965
5722.000000	0.893004
5720.000000	0.893021
5718.000000	0.892958
5716.000000	0.893053
5714.000000	0.893430
5712.000000	0.893791
5710.000000	0.893768
5708.000000	0.893503
5706.000000	0.893387
5704.000000	0.893506
5702.000000	0.893513
5700.000000	0.893384
5698.000000	0.893314
5696.000000	0.893664
5694.000000	0.894135
5692.000000	0.894246
5690.000000	0.893993
5688.000000	0.893574
5686.000000	0.893378
5684.000000	0.893395
5682.000000	0.893602
5680.000000	0.893827
5678.000000	0.893853
5676.000000	0.893844
5674.000000	0.893968
5672.000000	0.894060
5670.000000	0.893933
5668.000000	0.893789
5666.000000	0.893743
5664.000000	0.893744
5662.000000	0.893605
5660.000000	0.893505
5658.000000	0.893402
5656.000000	0.893340
5654.000000	0.893230
5652.000000	0.893136
5650.000000	0.893192
5648.000000	0.893256
5646.000000	0.893366
5644.000000	0.893418
5642.000000	0.893536
5640.000000	0.893626
5638.000000	0.893789
5636.000000	0.893967
5634.000000	0.894199
5632.000000	0.894270
5630.000000	0.894203
5628.000000	0.894131
5626.000000	0.894051
5624.000000	0.893985
5622.000000	0.893889
5620.000000	0.893848
5618.000000	0.894079
5616.000000	0.894225
5614.000000	0.894289
5612.000000	0.894293
5610.000000	0.894380
5608.000000	0.894461
5606.000000	0.894393
5604.000000	0.894404
5602.000000	0.894446
5600.000000	0.894548
5598.000000	0.894596
5596.000000	0.894671
5594.000000	0.894649
5592.000000	0.894411
5590.000000	0.894040
5588.000000	0.893915
5586.000000	0.894101
5584.000000	0.894342
5582.000000	0.894452
5580.000000	0.894515
5578.000000	0.894646
5576.000000	0.894586
5574.000000	0.894476
5572.000000	0.894536
5570.000000	0.894578
5568.000000	0.894518
5566.000000	0.894343
5564.000000	0.894299
5562.000000	0.894463
5560.000000	0.894690
5558.000000	0.894833
5556.000000	0.894746
5554.000000	0.894578
5552.000000	0.894427
5550.000000	0.894505
5548.000000	0.894631
5546.000000	0.894732
5544.000000	0.894649
5542.000000	0.894509
5540.000000	0.894493
5538.000000	0.894460
5536.000000	0.894436
5534.000000	0.894477
5532.000000	0.894629
5530.000000	0.894782
5528.000000	0.894834
5526.000000	0.895006
5524.000000	0.895070
5522.000000	0.894948
5520.000000	0.894899
5518.000000	0.895032
5516.000000	0.895138
5514.000000	0.895052
5512.000000	0.894971
5510.000000	0.895043
5508.000000	0.895071
5506.000000	0.894997
5504.000000	0.894923
5502.000000	0.894828
5500.000000	0.894864
5498.000000	0.895131
5496.000000	0.895264
5494.000000	0.895148
5492.000000	0.894838
5490.000000	0.894571
5488.000000	0.894550
5486.000000	0.894713
5484.000000	0.895033
5482.000000	0.895192
5480.000000	0.895203
5478.000000	0.895120
5476.000000	0.894961
5474.000000	0.894795
5472.000000	0.894760
5470.000000	0.894989
5468.000000	0.895081
5466.000000	0.895142
5464.000000	0.895275
5462.000000	0.895447
5460.000000	0.895411
5458.000000	0.895343
5456.000000	0.895418
5454.000000	0.895463
5452.000000	0.895315
5450.000000	0.895157
5448.000000	0.895091
5446.000000	0.895050
5444.000000	0.895198
5442.000000	0.895421
5440.000000	0.895464
5438.000000	0.895289
5436.000000	0.895183
5434.000000	0.895241
5432.000000	0.895259
5430.000000	0.895396
5428.000000	0.895594
5426.000000	0.895667
5424.000000	0.895523
5422.000000	0.895347
5420.000000	0.895287
5418.000000	0.895236
5416.000000	0.895215
5414.000000	0.895322
5412.000000	0.895508
5410.000000	0.895683
5408.000000	0.895705
5406.000000	0.895584
5404.000000	0.895572
5402.000000	0.895693
5400.000000	0.895733
5398.000000	0.895722
5396.000000	0.895702
5394.000000	0.895736
5392.000000	0.895733
5390.000000	0.895704
5388.000000	0.895821
5386.000000	0.895922
5384.000000	0.895796
5382.000000	0.895517
5380.000000	0.895353
5378.000000	0.895459
5376.000000	0.895750
5374.000000	0.895900
5372.000000	0.895846
5370.000000	0.895641
5368.000000	0.895541
5366.000000	0.895643
5364.000000	0.895726
5362.000000	0.895822
5360.000000	0.895911
5358.000000	0.895968
5356.000000	0.895982
5354.000000	0.895955
5352.000000	0.895991
5350.000000	0.895987
5348.000000	0.895931
5346.000000	0.895725
5344.000000	0.895630
5342.000000	0.895770
5340.000000	0.895904
5338.000000	0.895944
5336.000000	0.895946
5334.000000	0.896136
5332.000000	0.896294
5330.000000	0.896304
5328.000000	0.896328
5326.000000	0.896267
5324.000000	0.896201
5322.000000	0.896170
5320.000000	0.896340
5318.000000	0.896419
5316.000000	0.896224
5314.000000	0.896028
5312.000000	0.896217
5310.000000	0.896507
5308.000000	0.896472
5306.000000	0.896382
5304.000000	0.896541
5302.000000	0.896741
5300.000000	0.896760
5298.000000	0.896657
5296.000000	0.896572
5294.000000	0.896454
5292.000000	0.896463
5290.000000	0.896720
5288.000000	0.896889
5286.000000	0.896982
5284.000000	0.896952
5282.000000	0.896991
5280.000000	0.897049
5278.000000	0.896984
5276.000000	0.896935
5274.000000	0.896980
5272.000000	0.897179
5270.000000	0.897334
5268.000000	0.897389
5266.000000	0.897464
5264.000000	0.897491
5262.000000	0.897434
5260.000000	0.897427
5258.000000	0.897440
5256.000000	0.897490
5254.000000	0.897573
5252.000000	0.897667
5250.000000	0.897717
5248.000000	0.897637
5246.000000	0.897629
5244.000000	0.897705
5242.000000	0.897942
5240.000000	0.898084
5238.000000	0.898101
5236.000000	0.898058
5234.000000	0.898078
5232.000000	0.898180
5230.000000	0.898306
5228.000000	0.898412
5226.000000	0.898489
5224.000000	0.898561
5222.000000	0.898618
5220.000000	0.898652
5218.000000	0.898834
5216.000000	0.898997
5214.000000	0.899015
5212.000000	0.899040
5210.000000	0.899110
5208.000000	0.899148
5206.000000	0.899144
5204.000000	0.899233
5202.000000	0.899358
5200.000000	0.899473
5198.000000	0.899563
5196.000000	0.899655
5194.000000	0.899713
5192.000000	0.899807
5190.000000	0.899956
5188.000000	0.900136
5186.000000	0.900305
5184.000000	0.900419
5182.000000	0.900509
5180.000000	0.900667
5178.000000	0.900825
5176.000000	0.900865
5174.000000	0.900795
5172.000000	0.900776
5170.000000	0.900758
5168.000000	0.900671
5166.000000	0.900719
5164.000000	0.900895
5162.000000	0.901077
5160.000000	0.901177
5158.000000	0.901267
5156.000000	0.901335
5154.000000	0.901409
5152.000000	0.901473
5150.000000	0.901596
5148.000000	0.901716
5146.000000	0.901755
5144.000000	0.901722
5142.000000	0.901878
5140.000000	0.902230
5138.000000	0.902449
5136.000000	0.902457
5134.000000	0.902492
5132.000000	0.902655
5130.000000	0.902732
5128.000000	0.902773
5126.000000	0.902904
5124.000000	0.903195
5122.000000	0.903308
5120.000000	0.903169
5118.000000	0.903020
5116.000000	0.903199
5114.000000	0.903524
5112.000000	0.903594
5110.000000	0.903531
5108.000000	0.903614
5106.000000	0.903831
5104.000000	0.903914
5102.000000	0.903979
5100.000000	0.904081
5098.000000	0.904199
5096.000000	0.904259
5094.000000	0.904348
5092.000000	0.904493
5090.000000	0.904630
5088.000000	0.904716
5086.000000	0.904766
5084.000000	0.904783
5082.000000	0.904950
5080.000000	0.905160
5078.000000	0.905326
5076.000000	0.905284
5074.000000	0.905152
5072.000000	0.905088
5070.000000	0.905160
5068.000000	0.905338
5066.000000	0.905527
5064.000000	0.905638
5062.000000	0.905750
5060.000000	0.905938
5058.000000	0.906058
5056.000000	0.905995
5054.000000	0.905855
5052.000000	0.905795
5050.000000	0.905881
5048.000000	0.906162
5046.000000	0.906394
5044.000000	0.906434
5042.000000	0.906442
5040.000000	0.906577
5038.000000	0.906681
5036.000000	0.906693
5034.000000	0.906716
5032.000000	0.906704
5030.000000	0.906744
5028.000000	0.906814
5026.000000	0.906849
5024.000000	0.906908
5022.000000	0.907043
5020.000000	0.907088
5018.000000	0.906971
5016.000000	0.906986
5014.000000	0.907151
5012.000000	0.907284
5010.000000	0.907308
5008.000000	0.907277
5006.000000	0.907166
5004.000000	0.907238
5002.000000	0.907455
5000.000000	0.907545
4998.000000	0.907575
4996.000000	0.907638
4994.000000	0.907746
4992.000000	0.907700
4990.000000	0.907623
4988.000000	0.907547
4986.000000	0.907552
4984.000000	0.907601
4982.000000	0.907527
4980.000000	0.907447
4978.000000	0.907457
4976.000000	0.907562
4974.000000	0.907658
4972.000000	0.907723
4970.000000	0.907705
4968.000000	0.907613
4966.000000	0.907549
4964.000000	0.907554
4962.000000	0.907469
4960.000000	0.907382
4958.000000	0.907467
4956.000000	0.907616
4954.000000	0.907652
4952.000000	0.907687
4950.000000	0.907786
4948.000000	0.907798
4946.000000	0.907696
4944.000000	0.907610
4942.000000	0.907635
4940.000000	0.907685
4938.000000	0.907739
4936.000000	0.907785
4934.000000	0.907831
4932.000000	0.907789
4930.000000	0.907745
4928.000000	0.907734
4926.000000	0.907821
4924.000000	0.908014
4922.000000	0.908125
4920.000000	0.908037
4918.000000	0.907890
4916.000000	0.907773
4914.000000	0.907733
4912.000000	0.907770
4910.000000	0.907832
4908.000000	0.907861
4906.000000	0.907896
4904.000000	0.907849
4902.000000	0.907721
4900.000000	0.907657
4898.000000	0.907677
4896.000000	0.907808
4894.000000	0.907928
4892.000000	0.907971
4890.000000	0.907982
4888.000000	0.907968
4886.000000	0.907860
4884.000000	0.907804
4882.000000	0.907833
4880.000000	0.907768
4878.000000	0.907683
4876.000000	0.907636
4874.000000	0.907547
4872.000000	0.907449
4870.000000	0.907447
4868.000000	0.907386
4866.000000	0.907363
4864.000000	0.907433
4862.000000	0.907473
4860.000000	0.907402
4858.000000	0.907315
4856.000000	0.907290
4854.000000	0.907233
4852.000000	0.907204
4850.000000	0.907285
4848.000000	0.907303
4846.000000	0.907117
4844.000000	0.906948
4842.000000	0.906963
4840.000000	0.907006
4838.000000	0.907077
4836.000000	0.907182
4834.000000	0.907185
4832.000000	0.907099
4830.000000	0.907067
4828.000000	0.907030
4826.000000	0.906847
4824.000000	0.906635
4822.000000	0.906480
4820.000000	0.906405
4818.000000	0.906340
4816.000000	0.906297
4814.000000	0.906205
4812.000000	0.906169
4810.000000	0.906222
4808.000000	0.906218
4806.000000	0.906109
4804.000000	0.906018
4802.000000	0.906009
4800.000000	0.906027
4798.000000	0.906020
4796.000000	0.905976
4794.000000	0.905898
4792.000000	0.905760
4790.000000	0.905521
4788.000000	0.905313
4786.000000	0.905243
4784.000000	0.905127
4782.000000	0.904882
4780.000000	0.904705
4778.000000	0.904626
4776.000000	0.904532
4774.000000	0.904442
4772.000000	0.904365
4770.000000	0.904211
4768.000000	0.904036
4766.000000	0.903964
4764.000000	0.903886
4762.000000	0.903659
4760.000000	0.903371
4758.000000	0.903250
4756.000000	0.903196
4754.000000	0.903018
4752.000000	0.902824
4750.000000	0.902766
4748.000000	0.902706
4746.000000	0.902550
4744.000000	0.902426
4742.000000	0.902344
4740.000000	0.902219
4738.000000	0.902088
4736.000000	0.901974
4734.000000	0.901865
4732.000000	0.901801
4730.000000	0.901677
4728.000000	0.901472
4726.000000	0.901334
4724.000000	0.901245
4722.000000	0.901064
4720.000000	0.900881
4718.000000	0.900797
4716.000000	0.900755
4714.000000	0.900678
4712.000000	0.900559
4710.000000	0.900472
4708.000000	0.900449
4706.000000	0.900422
4704.000000	0.900232
4702.000000	0.899982
4700.000000	0.899874
4698.000000	0.899851
4696.000000	0.899737
4694.000000	0.899589
4692.000000	0.899494
4690.000000	0.899438
4688.000000	0.899390
4686.000000	0.899265
4684.000000	0.899180
4682.000000	0.899224
4680.000000	0.899260
4678.000000	0.899175
4676.000000	0.899052
4674.000000	0.898969
4672.000000	0.898902
4670.000000	0.898783
4668.000000	0.898588
4666.000000	0.898466
4664.000000	0.898424
4662.000000	0.898343
4660.000000	0.898257
4658.000000	0.898222
4656.000000	0.898205
4654.000000	0.898157
4652.000000	0.898105
4650.000000	0.898035
4648.000000	0.897975
4646.000000	0.897973
4644.000000	0.897996
4642.000000	0.897946
4640.000000	0.897871
4638.000000	0.897852
4636.000000	0.897817
4634.000000	0.897790
4632.000000	0.897759
4630.000000	0.897598
4628.000000	0.897387
4626.000000	0.897350
4624.000000	0.897449
4622.000000	0.897513
4620.000000	0.897491
4618.000000	0.897412
4616.000000	0.897283
4614.000000	0.897148
4612.000000	0.897081
4610.000000	0.897060
4608.000000	0.897008
4606.000000	0.896951
4604.000000	0.896974
4602.000000	0.897037
4600.000000	0.897041
4598.000000	0.896927
4596.000000	0.896809
4594.000000	0.896791
4592.000000	0.896818
4590.000000	0.896806
4588.000000	0.896766
4586.000000	0.896742
4584.000000	0.896709
4582.000000	0.896660
4580.000000	0.896629
4578.000000	0.896625
4576.000000	0.896548
4574.000000	0.896420
4572.000000	0.896372
4570.000000	0.896371
4568.000000	0.896298
4566.000000	0.896214
4564.000000	0.896200
4562.000000	0.896245
4560.000000	0.896322
4558.000000	0.896373
4556.000000	0.896345
4554.000000	0.896322
4552.000000	0.896354
4550.000000	0.896375
4548.000000	0.896329
4546.000000	0.896203
4544.000000	0.896121
4542.000000	0.896212
4540.000000	0.896309
4538.000000	0.896229
4536.000000	0.896057
4534.000000	0.895943
4532.000000	0.895950
4530.000000	0.896002
4528.000000	0.896016
4526.000000	0.895952
4524.000000	0.895871
4522.000000	0.895832
4520.000000	0.895849
4518.000000	0.895897
4516.000000	0.895894
4514.000000	0.895891
4512.000000	0.895931
4510.000000	0.895942
4508.000000	0.895887
4506.000000	0.895869
4504.000000	0.895849
4502.000000	0.895845
4500.000000	0.895819
4498.000000	0.895739
4496.000000	0.895716
4494.000000	0.895721
4492.000000	0.895657
4490.000000	0.895618
4488.000000	0.895648
4486.000000	0.895655
4484.000000	0.895576
4482.000000	0.895531
4480.000000	0.895593
4478.000000	0.895578
4476.000000	0.895438
4474.000000	0.895381
4472.000000	0.895398
4470.000000	0.895427
4468.000000	0.895527
4466.000000	0.895633
4464.000000	0.895638
4462.000000	0.895592
4460.000000	0.895560
4458.000000	0.895533
4456.000000	0.895491
4454.000000	0.895449
4452.000000	0.895492
4450.000000	0.895584
4448.000000	0.895563
4446.000000	0.895530
4444.000000	0.895585
4442.000000	0.895568
4440.000000	0.895440
4438.000000	0.895362
4436.000000	0.895355
4434.000000	0.895382
4432.000000	0.895403
4430.000000	0.895375
4428.000000	0.895373
4426.000000	0.895500
4424.000000	0.895642
4422.000000	0.895633
4420.000000	0.895565
4418.000000	0.895515
4416.000000	0.895449
4414.000000	0.895441
4412.000000	0.895509
4410.000000	0.895534
4408.000000	0.895545
4406.000000	0.895570
4404.000000	0.895596
4402.000000	0.895655
4400.000000	0.895678
4398.000000	0.895615
4396.000000	0.895541
4394.000000	0.895473
4392.000000	0.895448
4390.000000	0.895489
4388.000000	0.895530
4386.000000	0.895522
4384.000000	0.895534
4382.000000	0.895642
4380.000000	0.895752
4378.000000	0.895708
4376.000000	0.895599
4374.000000	0.895608
4372.000000	0.895688
4370.000000	0.895735
4368.000000	0.895784
4366.000000	0.895819
4364.000000	0.895793
4362.000000	0.895758
4360.000000	0.895794
4358.000000	0.895894
4356.000000	0.895972
4354.000000	0.895962
4352.000000	0.895948
4350.000000	0.896022
4348.000000	0.896105
4346.000000	0.896135
4344.000000	0.896160
4342.000000	0.896177
4340.000000	0.896174
4338.000000	0.896167
4336.000000	0.896102
4334.000000	0.896026
4332.000000	0.896077
4330.000000	0.896238
4328.000000	0.896360
4326.000000	0.896397
4324.000000	0.896380
4322.000000	0.896267
4320.000000	0.896247
4318.000000	0.896391
4316.000000	0.896466
4314.000000	0.896480
4312.000000	0.896543
4310.000000	0.896564
4308.000000	0.896620
4306.000000	0.896698
4304.000000	0.896747
4302.000000	0.896782
4300.000000	0.896763
4298.000000	0.896701
4296.000000	0.896667
4294.000000	0.896691
4292.000000	0.896740
4290.000000	0.896709
4288.000000	0.896670
4286.000000	0.896783
4284.000000	0.896926
4282.000000	0.896915
4280.000000	0.896820
4278.000000	0.896796
4276.000000	0.896900
4274.000000	0.897003
4272.000000	0.896977
4270.000000	0.896986
4268.000000	0.897122
4266.000000	0.897199
4264.000000	0.897166
4262.000000	0.897165
4260.000000	0.897226
4258.000000	0.897263
4256.000000	0.897238
4254.000000	0.897224
4252.000000	0.897232
4250.000000	0.897260
4248.000000	0.897328
4246.000000	0.897405
4244.000000	0.897459
4242.000000	0.897524
4240.000000	0.897571
4238.000000	0.897519
4236.000000	0.897399
4234.000000	0.897348
4232.000000	0.897403
4230.000000	0.897506
4228.000000	0.897614
4226.000000	0.897678
4224.000000	0.897621
4222.000000	0.897454
4220.000000	0.897414
4218.000000	0.897562
4216.000000	0.897579
4214.000000	0.897481
4212.000000	0.897504
4210.000000	0.897553
4208.000000	0.897551
4206.000000	0.897546
4204.000000	0.897537
4202.000000	0.897507
4200.000000	0.897442
4198.000000	0.897382
4196.000000	0.897358
4194.000000	0.897406
4192.000000	0.897463
4190.000000	0.897381
4188.000000	0.897262
4186.000000	0.897307
4184.000000	0.897431
4182.000000	0.897438
4180.000000	0.897346
4178.000000	0.897295
4176.000000	0.897275
4174.000000	0.897218
4172.000000	0.897189
4170.000000	0.897251
4168.000000	0.897287
4166.000000	0.897207
4164.000000	0.897179
4162.000000	0.897225
4160.000000	0.897231
4158.000000	0.897269
4156.000000	0.897286
4154.000000	0.897182
4152.000000	0.897163
4150.000000	0.897200
4148.000000	0.897131
4146.000000	0.897082
4144.000000	0.897123
4142.000000	0.897159
4140.000000	0.897138
4138.000000	0.897117
4136.000000	0.897142
4134.000000	0.897160
4132.000000	0.897189
4130.000000	0.897191
4128.000000	0.897118
4126.000000	0.897079
4124.000000	0.897097
4122.000000	0.897134
4120.000000	0.897173
4118.000000	0.897181
4116.000000	0.897177
4114.000000	0.897138
4112.000000	0.897042
4110.000000	0.896956
4108.000000	0.896936
4106.000000	0.896969
4104.000000	0.896940
4102.000000	0.896852
4100.000000	0.896878
4098.000000	0.896967
4096.000000	0.896941
4094.000000	0.896833
4092.000000	0.896780
4090.000000	0.896810
4088.000000	0.896788
4086.000000	0.896772
4084.000000	0.896834
4082.000000	0.896845
4080.000000	0.896846
4078.000000	0.896904
4076.000000	0.896859
4074.000000	0.896757
4072.000000	0.896773
4070.000000	0.896824
4068.000000	0.896801
4066.000000	0.896762
4064.000000	0.896731
4062.000000	0.896756
4060.000000	0.896811
4058.000000	0.896771
4056.000000	0.896701
4054.000000	0.896722
4052.000000	0.896701
4050.000000	0.896634
4048.000000	0.896616
4046.000000	0.896611
4044.000000	0.896652
4042.000000	0.896713
4040.000000	0.896663
4038.000000	0.896586
4036.000000	0.896588
4034.000000	0.896578
4032.000000	0.896537
4030.000000	0.896577
4028.000000	0.896630
4026.000000	0.896598
4024.000000	0.896579
4022.000000	0.896544
4020.000000	0.896458
4018.000000	0.896456
4016.000000	0.896528
4014.000000	0.896524
4012.000000	0.896460
4010.000000	0.896418
4008.000000	0.896366
4006.000000	0.896293
4004.000000	0.896278
4002.000000	0.896309
4000.000000	0.896279
3998.000000	0.896180
3996.000000	0.896131
3994.000000	0.896100
3992.000000	0.896060
3990.000000	0.896044
3988.000000	0.896003
3986.000000	0.895994
3984.000000	0.896023
3982.000000	0.896016
3980.000000	0.896003
3978.000000	0.895941
3976.000000	0.895874
3974.000000	0.895891
3972.000000	0.895890
3970.000000	0.895820
3968.000000	0.895790
3966.000000	0.895790
3964.000000	0.895694
3962.000000	0.895604
3960.000000	0.895612
3958.000000	0.895582
3956.000000	0.895497
3954.000000	0.895385
3952.000000	0.895302
3950.000000	0.895275
3948.000000	0.895256
3946.000000	0.895243
3944.000000	0.895211
3942.000000	0.895181
3940.000000	0.895190
3938.000000	0.895191
3936.000000	0.895109
3934.000000	0.894966
3932.000000	0.894871
3930.000000	0.894790
3928.000000	0.894750
3926.000000	0.894762
3924.000000	0.894759
3922.000000	0.894702
3920.000000	0.894551
3918.000000	0.894391
3916.000000	0.894308
3914.000000	0.894282
3912.000000	0.894295
3910.000000	0.894307
3908.000000	0.894187
3906.000000	0.893909
3904.000000	0.893661
3902.000000	0.893535
3900.000000	0.893456
3898.000000	0.893457
3896.000000	0.893539
3894.000000	0.893529
3892.000000	0.893361
3890.000000	0.893229
3888.000000	0.893158
3886.000000	0.892957
3884.000000	0.892856
3882.000000	0.892897
3880.000000	0.892854
3878.000000	0.892905
3876.000000	0.892922
3874.000000	0.892666
3872.000000	0.892344
3870.000000	0.892120
3868.000000	0.892080
3866.000000	0.892157
3864.000000	0.892188
3862.000000	0.892187
3860.000000	0.892145
3858.000000	0.892077
3856.000000	0.891701
3854.000000	0.890879
3852.000000	0.890508
3850.000000	0.890973
3848.000000	0.891461
3846.000000	0.891558
3844.000000	0.891459
3842.000000	0.891288
3840.000000	0.891022
3838.000000	0.890612
3836.000000	0.890428
3834.000000	0.890648
3832.000000	0.890808
3830.000000	0.890792
3828.000000	0.890765
3826.000000	0.890687
3824.000000	0.890530
3822.000000	0.890206
3820.000000	0.889942
3818.000000	0.889903
3816.000000	0.889748
3814.000000	0.889660
3812.000000	0.889901
3810.000000	0.890062
3808.000000	0.889785
3806.000000	0.889411
3804.000000	0.889289
3802.000000	0.889025
3800.000000	0.888764
3798.000000	0.888910
3796.000000	0.889112
3794.000000	0.889143
3792.000000	0.889144
3790.000000	0.889114
3788.000000	0.889008
3786.000000	0.888888
3784.000000	0.888794
3782.000000	0.888675
3780.000000	0.888484
3778.000000	0.888371
3776.000000	0.888397
3774.000000	0.888373
3772.000000	0.888152
3770.000000	0.887855
3768.000000	0.887759
3766.000000	0.887734
3764.000000	0.887686
3762.000000	0.887671
3760.000000	0.887556
3758.000000	0.887423
3756.000000	0.887362
3754.000000	0.887142
3752.000000	0.886671
3750.000000	0.886288
3748.000000	0.886345
3746.000000	0.886404
3744.000000	0.886081
3742.000000	0.886209
3740.000000	0.886817
3738.000000	0.886943
3736.000000	0.886597
3734.000000	0.886406
3732.000000	0.886532
3730.000000	0.886785
3728.000000	0.886976
3726.000000	0.887044
3724.000000	0.887150
3722.000000	0.887269
3720.000000	0.887309
3718.000000	0.887392
3716.000000	0.887612
3714.000000	0.887720
3712.000000	0.887505
3710.000000	0.887356
3708.000000	0.887599
3706.000000	0.888041
3704.000000	0.888377
3702.000000	0.888483
3700.000000	0.888584
3698.000000	0.888827
3696.000000	0.889126
3694.000000	0.889376
3692.000000	0.889485
3690.000000	0.889427
3688.000000	0.889419
3686.000000	0.889828
3684.000000	0.890454
3682.000000	0.890893
3680.000000	0.891159
3678.000000	0.891317
3676.000000	0.891297
3674.000000	0.891522
3672.000000	0.892053
3670.000000	0.892371
3668.000000	0.892815
3666.000000	0.893588
3664.000000	0.894332
3662.000000	0.894925
3660.000000	0.895382
3658.000000	0.895697
3656.000000	0.896033
3654.000000	0.896615
3652.000000	0.897119
3650.000000	0.897215
3648.000000	0.897497
3646.000000	0.898331
3644.000000	0.899223
3642.000000	0.899851
3640.000000	0.900349
3638.000000	0.900840
3636.000000	0.901303
3634.000000	0.901760
3632.000000	0.902194
3630.000000	0.902398
3628.000000	0.902676
3626.000000	0.903483
3624.000000	0.904387
3622.000000	0.905012
3620.000000	0.905454
3618.000000	0.905952
3616.000000	0.906661
3614.000000	0.907322
3612.000000	0.907841
3610.000000	0.908426
3608.000000	0.909050
3606.000000	0.909756
3604.000000	0.910567
3602.000000	0.911320
3600.000000	0.911956
3598.000000	0.912652
3596.000000	0.913407
3594.000000	0.914086
3592.000000	0.914778
3590.000000	0.915468
3588.000000	0.916048
3586.000000	0.916641
3584.000000	0.917366
3582.000000	0.918064
3580.000000	0.918694
3578.000000	0.919226
3576.000000	0.919680
3574.000000	0.920227
3572.000000	0.920832
3570.000000	0.921325
3568.000000	0.921723
3566.000000	0.922151
3564.000000	0.922667
3562.000000	0.923257
3560.000000	0.923750
3558.000000	0.924177
3556.000000	0.924673
3554.000000	0.925085
3552.000000	0.925338
3550.000000	0.925612
3548.000000	0.925894
3546.000000	0.926130
3544.000000	0.926407
3542.000000	0.926743
3540.000000	0.927051
3538.000000	0.927284
3536.000000	0.927468
3534.000000	0.927687
3532.000000	0.927937
3530.000000	0.928082
3528.000000	0.928210
3526.000000	0.928378
3524.000000	0.928482
3522.000000	0.928577
3520.000000	0.928708
3518.000000	0.928830
3516.000000	0.929005
3514.000000	0.929181
3512.000000	0.929351
3510.000000	0.929558
3508.000000	0.929709
3506.000000	0.929857
3504.000000	0.930001
3502.000000	0.930114
3500.000000	0.930351
3498.000000	0.930677
3496.000000	0.930907
3494.000000	0.931067
3492.000000	0.931233
3490.000000	0.931379
3488.000000	0.931566
3486.000000	0.931816
3484.000000	0.932023
3482.000000	0.932232
3480.000000	0.932500
3478.000000	0.932763
3476.000000	0.933132
3474.000000	0.933504
3472.000000	0.933752
3470.000000	0.934009
3468.000000	0.934322
3466.000000	0.934621
3464.000000	0.934915
3462.000000	0.935208
3460.000000	0.935502
3458.000000	0.935789
3456.000000	0.936057
3454.000000	0.936379
3452.000000	0.936778
3450.000000	0.937096
3448.000000	0.937274
3446.000000	0.937441
3444.000000	0.937670
3442.000000	0.937939
3440.000000	0.938202
3438.000000	0.938406
3436.000000	0.938589
3434.000000	0.938785
3432.000000	0.939013
3430.000000	0.939186
3428.000000	0.939332
3426.000000	0.939582
3424.000000	0.939844
3422.000000	0.940052
3420.000000	0.940208
3418.000000	0.940329
3416.000000	0.940531
3414.000000	0.940708
3412.000000	0.940802
3410.000000	0.940924
3408.000000	0.941094
3406.000000	0.941253
3404.000000	0.941329
3402.000000	0.941394
3400.000000	0.941557
3398.000000	0.941706
3396.000000	0.941711
3394.000000	0.941675
3392.000000	0.941764
3390.000000	0.941837
3388.000000	0.941835
3386.000000	0.941912
3384.000000	0.942068
3382.000000	0.942195
3380.000000	0.942246
3378.000000	0.942279
3376.000000	0.942373
3374.000000	0.942472
3372.000000	0.942474
3370.000000	0.942455
3368.000000	0.942497
3366.000000	0.942526
3364.000000	0.942535
3362.000000	0.942510
3360.000000	0.942573
3358.000000	0.942771
3356.000000	0.942835
3354.000000	0.942796
3352.000000	0.942853
3350.000000	0.942913
3348.000000	0.942900
3346.000000	0.942903
3344.000000	0.942899
3342.000000	0.942963
3340.000000	0.943026
3338.000000	0.943011
3336.000000	0.943033
3334.000000	0.943045
3332.000000	0.943022
3330.000000	0.943043
3328.000000	0.943089
3326.000000	0.943080
3324.000000	0.943097
3322.000000	0.943156
3320.000000	0.943209
3318.000000	0.943238
3316.000000	0.943298
3314.000000	0.943358
3312.000000	0.943349
3310.000000	0.943346
3308.000000	0.943332
3306.000000	0.943374
3304.000000	0.943488
3302.000000	0.943518
3300.000000	0.943502
3298.000000	0.943554
3296.000000	0.943671
3294.000000	0.943737
3292.000000	0.943679
3290.000000	0.943634
3288.000000	0.943717
3286.000000	0.943882
3284.000000	0.943912
3282.000000	0.943864
3280.000000	0.943922
3278.000000	0.943956
3276.000000	0.943939
3274.000000	0.943997
3272.000000	0.944138
3270.000000	0.944265
3268.000000	0.944323
3266.000000	0.944310
3264.000000	0.944310
3262.000000	0.944299
3260.000000	0.944354
3258.000000	0.944522
3256.000000	0.944594
3254.000000	0.944653
3252.000000	0.944723
3250.000000	0.944660
3248.000000	0.944635
3246.000000	0.944741
3244.000000	0.944854
3242.000000	0.944881
3240.000000	0.944889
3238.000000	0.944921
3236.000000	0.944910
3234.000000	0.944910
3232.000000	0.945029
3230.000000	0.945177
3228.000000	0.945184
3226.000000	0.945151
3224.000000	0.945205
3222.000000	0.945290
3220.000000	0.945303
3218.000000	0.945261
3216.000000	0.945303
3214.000000	0.945443
3212.000000	0.945589
3210.000000	0.945585
3208.000000	0.945520
3206.000000	0.945481
3204.000000	0.945513
3202.000000	0.945580
3200.000000	0.945643
3198.000000	0.945732
3196.000000	0.945782
3194.000000	0.945782
3192.000000	0.945773
3190.000000	0.945789
3188.000000	0.945805
3186.000000	0.945813
3184.000000	0.945823
3182.000000	0.945798
3180.000000	0.945794
3178.000000	0.945851
3176.000000	0.945870
3174.000000	0.945880
3172.000000	0.945925
3170.000000	0.945976
3168.000000	0.946018
3166.000000	0.945992
3164.000000	0.945987
3162.000000	0.946031
3160.000000	0.946024
3158.000000	0.945990
3156.000000	0.945982
3154.000000	0.945982
3152.000000	0.946055
3150.000000	0.946206
3148.000000	0.946285
3146.000000	0.946258
3144.000000	0.946195
3142.000000	0.946112
3140.000000	0.946086
3138.000000	0.946108
3136.000000	0.946159
3134.000000	0.946227
3132.000000	0.946318
3130.000000	0.946397
3128.000000	0.946403
3126.000000	0.946431
3124.000000	0.946489
3122.000000	0.946452
3120.000000	0.946447
3118.000000	0.946516
3116.000000	0.946523
3114.000000	0.946558
3112.000000	0.946627
3110.000000	0.946674
3108.000000	0.946722
3106.000000	0.946695
3104.000000	0.946674
3102.000000	0.946737
3100.000000	0.946812
3098.000000	0.946864
3096.000000	0.946842
3094.000000	0.946798
3092.000000	0.946759
3090.000000	0.946756
3088.000000	0.946857
3086.000000	0.946915
3084.000000	0.946901
3082.000000	0.946967
3080.000000	0.947011
3078.000000	0.946981
3076.000000	0.946980
3074.000000	0.947054
3072.000000	0.947089
3070.000000	0.947058
3068.000000	0.947093
3066.000000	0.947133
3064.000000	0.947032
3062.000000	0.946997
3060.000000	0.947082
3058.000000	0.947150
3056.000000	0.947188
3054.000000	0.947153
3052.000000	0.947071
3050.000000	0.947071
3048.000000	0.947131
3046.000000	0.947111
3044.000000	0.947066
3042.000000	0.947158
3040.000000	0.947265
3038.000000	0.947249
3036.000000	0.947172
3034.000000	0.947167
3032.000000	0.947233
3030.000000	0.947225
3028.000000	0.947148
3026.000000	0.947148
3024.000000	0.947254
3022.000000	0.947323
3020.000000	0.947289
3018.000000	0.947198
3016.000000	0.947075
3014.000000	0.947006
3012.000000	0.947025
3010.000000	0.947045
3008.000000	0.947046
3006.000000	0.947112
3004.000000	0.947182
3002.000000	0.947171
3000.000000	0.947160
2998.000000	0.947176
2996.000000	0.947147
2994.000000	0.947097
2992.000000	0.947085
2990.000000	0.947155
2988.000000	0.947242
2986.000000	0.947186
2984.000000	0.947117
2982.000000	0.947138
2980.000000	0.947239
2978.000000	0.947326
2976.000000	0.947419
2974.000000	0.947525
2972.000000	0.947723
2970.000000	0.948023
2968.000000	0.948227
2966.000000	0.948263
2964.000000	0.948193
2962.000000	0.948026
2960.000000	0.947712
2958.000000	0.947400
2956.000000	0.947139
2954.000000	0.946866
2952.000000	0.946693
2950.000000	0.946548
2948.000000	0.946431
2946.000000	0.946389
2944.000000	0.946359
2942.000000	0.946351
2940.000000	0.946316
2938.000000	0.946176
2936.000000	0.946059
2934.000000	0.945971
2932.000000	0.945880
2930.000000	0.945785
2928.000000	0.945611
2926.000000	0.945333
2924.000000	0.945000
2922.000000	0.944719
2920.000000	0.944575
2918.000000	0.944497
2916.000000	0.944359
2914.000000	0.944256
2912.000000	0.944275
2910.000000	0.944266
2908.000000	0.944217
2906.000000	0.944216
2904.000000	0.944184
2902.000000	0.944090
2900.000000	0.943988
2898.000000	0.943871
2896.000000	0.943695
2894.000000	0.943558
2892.000000	0.943479
2890.000000	0.943363
2888.000000	0.943210
2886.000000	0.943131
2884.000000	0.943066
2882.000000	0.942973
2880.000000	0.942851
2878.000000	0.942760
2876.000000	0.942712
2874.000000	0.942644
2872.000000	0.942613
2870.000000	0.942596
2868.000000	0.942566
2866.000000	0.942492
2864.000000	0.942304
2862.000000	0.942032
2860.000000	0.941738
2858.000000	0.941459
2856.000000	0.941285
2854.000000	0.941184
2852.000000	0.941050
2850.000000	0.940826
2848.000000	0.940601
2846.000000	0.940568
2844.000000	0.940611
2842.000000	0.940574
2840.000000	0.940571
2838.000000	0.940533
2836.000000	0.940460
2834.000000	0.940371
2832.000000	0.940294
2830.000000	0.940261
2828.000000	0.940240
2826.000000	0.940233
2824.000000	0.940180
2822.000000	0.940077
2820.000000	0.939971
2818.000000	0.939866
2816.000000	0.939798
2814.000000	0.939794
2812.000000	0.939730
2810.000000	0.939601
2808.000000	0.939520
2806.000000	0.939506
2804.000000	0.939446
2802.000000	0.939365
2800.000000	0.939342
2798.000000	0.939398
2796.000000	0.939347
2794.000000	0.939201
2792.000000	0.939161
2790.000000	0.939152
2788.000000	0.939070
2786.000000	0.938969
2784.000000	0.938957
2782.000000	0.938979
2780.000000	0.938993
2778.000000	0.939037
2776.000000	0.939028
2774.000000	0.938971
2772.000000	0.938924
2770.000000	0.938893
2768.000000	0.938886
2766.000000	0.938895
2764.000000	0.938907
2762.000000	0.938887
2760.000000	0.938838
2758.000000	0.938843
2756.000000	0.938869
2754.000000	0.938808
2752.000000	0.938707
2750.000000	0.938736
2748.000000	0.938816
2746.000000	0.938805
2744.000000	0.938738
2742.000000	0.938760
2740.000000	0.938866
2738.000000	0.938884
2736.000000	0.938881
2734.000000	0.938973
2732.000000	0.939044
2730.000000	0.939006
2728.000000	0.939045
2726.000000	0.939137
2724.000000	0.939153
2722.000000	0.939153
2720.000000	0.939160
2718.000000	0.939182
2716.000000	0.939228
2714.000000	0.939333
2712.000000	0.939371
2710.000000	0.939383
2708.000000	0.939488
2706.000000	0.939566
2704.000000	0.939610
2702.000000	0.939664
2700.000000	0.939722
2698.000000	0.939784
2696.000000	0.939836
2694.000000	0.939915
2692.000000	0.940009
2690.000000	0.940042
2688.000000	0.940043
2686.000000	0.940125
2684.000000	0.940254
2682.000000	0.940393
2680.000000	0.940458
2678.000000	0.940563
2676.000000	0.940701
2674.000000	0.940725
2672.000000	0.940733
2670.000000	0.940804
2668.000000	0.940895
2666.000000	0.941008
2664.000000	0.941122
2662.000000	0.941198
2660.000000	0.941306
2658.000000	0.941404
2656.000000	0.941475
2654.000000	0.941550
2652.000000	0.941628
2650.000000	0.941727
2648.000000	0.941835
2646.000000	0.941931
2644.000000	0.942078
2642.000000	0.942199
2640.000000	0.942201
2638.000000	0.942280
2636.000000	0.942465
2634.000000	0.942564
2632.000000	0.942615
2630.000000	0.942691
2628.000000	0.942812
2626.000000	0.942918
2624.000000	0.942994
2622.000000	0.943114
2620.000000	0.943240
2618.000000	0.943286
2616.000000	0.943263
2614.000000	0.943335
2612.000000	0.943468
2610.000000	0.943544
2608.000000	0.943679
2606.000000	0.943795
2604.000000	0.943835
2602.000000	0.943954
2600.000000	0.944072
2598.000000	0.944083
2596.000000	0.944153
2594.000000	0.944297
2592.000000	0.944387
2590.000000	0.944419
2588.000000	0.944497
2586.000000	0.944586
2584.000000	0.944669
2582.000000	0.944737
2580.000000	0.944806
2578.000000	0.944906
2576.000000	0.945021
2574.000000	0.945109
2572.000000	0.945168
2570.000000	0.945228
2568.000000	0.945329
2566.000000	0.945430
2564.000000	0.945496
2562.000000	0.945572
2560.000000	0.945653
2558.000000	0.945686
2556.000000	0.945723
2554.000000	0.945828
2552.000000	0.945937
2550.000000	0.945980
2548.000000	0.946029
2546.000000	0.946128
2544.000000	0.946239
2542.000000	0.946342
2540.000000	0.946426
2538.000000	0.946514
2536.000000	0.946606
2534.000000	0.946647
2532.000000	0.946706
2530.000000	0.946758
2528.000000	0.946821
2526.000000	0.946904
2524.000000	0.946988
2522.000000	0.947052
2520.000000	0.947069
2518.000000	0.947082
2516.000000	0.947199
2514.000000	0.947331
2512.000000	0.947449
2510.000000	0.947536
2508.000000	0.947562
2506.000000	0.947604
2504.000000	0.947637
2502.000000	0.947682
2500.000000	0.947744
2498.000000	0.947818
2496.000000	0.947950
2494.000000	0.948109
2492.000000	0.948112
2490.000000	0.948068
2488.000000	0.948141
2486.000000	0.948277
2484.000000	0.948398
2482.000000	0.948468
2480.000000	0.948490
2478.000000	0.948495
2476.000000	0.948591
2474.000000	0.948697
2472.000000	0.948710
2470.000000	0.948757
2468.000000	0.948850
2466.000000	0.948935
2464.000000	0.949025
2462.000000	0.949067
2460.000000	0.949148
2458.000000	0.949248
2456.000000	0.949329
2454.000000	0.949448
2452.000000	0.949525
2450.000000	0.949618
2448.000000	0.949738
2446.000000	0.949850
2444.000000	0.949998
2442.000000	0.950142
2440.000000	0.950291
2438.000000	0.950490
2436.000000	0.950727
2434.000000	0.950935
2432.000000	0.951167
2430.000000	0.951424
2428.000000	0.951695
2426.000000	0.951997
2424.000000	0.952262
2422.000000	0.952496
2420.000000	0.952741
2418.000000	0.952882
2416.000000	0.952916
2414.000000	0.952950
2412.000000	0.952907
2410.000000	0.952748
2408.000000	0.952534
2406.000000	0.952310
2404.000000	0.952144
2402.000000	0.951969
2400.000000	0.951749
2398.000000	0.951606
2396.000000	0.951568
2394.000000	0.951560
2392.000000	0.951557
2390.000000	0.951545
2388.000000	0.951464
2386.000000	0.951391
2384.000000	0.951352
2382.000000	0.951332
2380.000000	0.951360
2378.000000	0.951455
2376.000000	0.951540
2374.000000	0.951544
2372.000000	0.951471
2370.000000	0.951323
2368.000000	0.951287
2366.000000	0.951323
2364.000000	0.951328
2362.000000	0.951343
2360.000000	0.951368
2358.000000	0.951437
2356.000000	0.951577
2354.000000	0.951695
2352.000000	0.951783
2350.000000	0.951978
2348.000000	0.952193
2346.000000	0.952285
2344.000000	0.952349
2342.000000	0.952484
2340.000000	0.952575
2338.000000	0.952479
2336.000000	0.952367
2334.000000	0.952369
2332.000000	0.952389
2330.000000	0.952463
2328.000000	0.952551
2326.000000	0.952609
2324.000000	0.952729
2322.000000	0.952855
2320.000000	0.952918
2318.000000	0.952968
2316.000000	0.953067
2314.000000	0.953148
2312.000000	0.953190
2310.000000	0.953226
2308.000000	0.953281
2306.000000	0.953346
2304.000000	0.953466
2302.000000	0.953582
2300.000000	0.953649
2298.000000	0.953723
2296.000000	0.953730
2294.000000	0.953731
2292.000000	0.953812
2290.000000	0.953877
2288.000000	0.953926
2286.000000	0.953997
2284.000000	0.954034
2282.000000	0.954108
2280.000000	0.954194
2278.000000	0.954222
2276.000000	0.954234
2274.000000	0.954288
2272.000000	0.954326
2270.000000	0.954328
2268.000000	0.954365
2266.000000	0.954381
2264.000000	0.954431
2262.000000	0.954507
2260.000000	0.954528
2258.000000	0.954552
2256.000000	0.954603
2254.000000	0.954623
2252.000000	0.954628
2250.000000	0.954656
2248.000000	0.954720
2246.000000	0.954728
2244.000000	0.954706
2242.000000	0.954705
2240.000000	0.954762
2238.000000	0.954806
2236.000000	0.954800
2234.000000	0.954814
2232.000000	0.954883
2230.000000	0.954927
2228.000000	0.954943
2226.000000	0.954946
2224.000000	0.955004
2222.000000	0.955045
2220.000000	0.955032
2218.000000	0.955051
2216.000000	0.955022
2214.000000	0.954936
2212.000000	0.954935
2210.000000	0.955014
2208.000000	0.955073
2206.000000	0.955058
2204.000000	0.955020
2202.000000	0.955005
2200.000000	0.954984
2198.000000	0.954959
2196.000000	0.954936
2194.000000	0.954931
2192.000000	0.954897
2190.000000	0.954912
2188.000000	0.954937
2186.000000	0.954924
2184.000000	0.954864
2182.000000	0.954837
2180.000000	0.954850
2178.000000	0.954796
2176.000000	0.954704
2174.000000	0.954700
2172.000000	0.954708
2170.000000	0.954613
2168.000000	0.954529
2166.000000	0.954462
2164.000000	0.954417
2162.000000	0.954452
2160.000000	0.954447
2158.000000	0.954374
2156.000000	0.954264
2154.000000	0.954237
2152.000000	0.954252
2150.000000	0.954135
2148.000000	0.954039
2146.000000	0.954012
2144.000000	0.953928
2142.000000	0.953864
2140.000000	0.953810
2138.000000	0.953754
2136.000000	0.953723
2134.000000	0.953686
2132.000000	0.953625
2130.000000	0.953534
2128.000000	0.953435
2126.000000	0.953341
2124.000000	0.953275
2122.000000	0.953172
2120.000000	0.953107
2118.000000	0.953087
2116.000000	0.953031
2114.000000	0.952910
2112.000000	0.952762
2110.000000	0.952590
2108.000000	0.952473
2106.000000	0.952423
2104.000000	0.952374
2102.000000	0.952262
2100.000000	0.952160
2098.000000	0.952110
2096.000000	0.952006
2094.000000	0.951890
2092.000000	0.951778
2090.000000	0.951643
2088.000000	0.951521
2086.000000	0.951412
2084.000000	0.951328
2082.000000	0.951234
2080.000000	0.951148
2078.000000	0.951079
2076.000000	0.950962
2074.000000	0.950826
2072.000000	0.950696
2070.000000	0.950613
2068.000000	0.950569
2066.000000	0.950437
2064.000000	0.950246
2062.000000	0.950125
2060.000000	0.950075
2058.000000	0.949986
2056.000000	0.949842
2054.000000	0.949712
2052.000000	0.949595
2050.000000	0.949458
2048.000000	0.949361
2046.000000	0.949275
2044.000000	0.949165
2042.000000	0.949060
2040.000000	0.948983
2038.000000	0.948865
2036.000000	0.948775
2034.000000	0.948696
2032.000000	0.948595
2030.000000	0.948440
2028.000000	0.948305
2026.000000	0.948207
2024.000000	0.948134
2022.000000	0.948080
2020.000000	0.948029
2018.000000	0.947934
2016.000000	0.947804
2014.000000	0.947718
2012.000000	0.947631
2010.000000	0.947526
2008.000000	0.947437
2006.000000	0.947390
2004.000000	0.947337
2002.000000	0.947242
2000.000000	0.947198
1998.000000	0.947126
1996.000000	0.947018
1994.000000	0.946948
1992.000000	0.946913
1990.000000	0.946924
1988.000000	0.946909
1986.000000	0.946898
1984.000000	0.946941
1982.000000	0.946950
1980.000000	0.946921
1978.000000	0.946884
1976.000000	0.946846
1974.000000	0.946792
1972.000000	0.946786
1970.000000	0.946776
1968.000000	0.946792
1966.000000	0.946810
1964.000000	0.946847
1962.000000	0.946934
1960.000000	0.947014
1958.000000	0.946960
1956.000000	0.946960
1954.000000	0.947084
1952.000000	0.947174
1950.000000	0.947207
1948.000000	0.947278
1946.000000	0.947363
1944.000000	0.947364
1942.000000	0.947364
1940.000000	0.947496
1938.000000	0.947654
1936.000000	0.947749
1934.000000	0.947816
1932.000000	0.947875
1930.000000	0.948023
1928.000000	0.948190
1926.000000	0.948245
1924.000000	0.948282
1922.000000	0.948407
1920.000000	0.948520
1918.000000	0.948528
1916.000000	0.948625
1914.000000	0.948832
1912.000000	0.948972
1910.000000	0.949027
1908.000000	0.949124
1906.000000	0.949248
1904.000000	0.949294
1902.000000	0.949381
1900.000000	0.949582
1898.000000	0.949708
1896.000000	0.949749
1894.000000	0.949802
1892.000000	0.949884
1890.000000	0.949943
1888.000000	0.950060
1886.000000	0.950171
1884.000000	0.950192
1882.000000	0.950252
1880.000000	0.950342
1878.000000	0.950430
1876.000000	0.950470
1874.000000	0.950512
1872.000000	0.950547
1870.000000	0.950468
1868.000000	0.950446
1866.000000	0.950588
1864.000000	0.950710
1862.000000	0.950799
1860.000000	0.950838
1858.000000	0.950842
1856.000000	0.950866
1854.000000	0.950921
1852.000000	0.950994
1850.000000	0.951060
1848.000000	0.951083
1846.000000	0.951010
1844.000000	0.950818
1842.000000	0.950929
1840.000000	0.951176
1838.000000	0.951249
1836.000000	0.951316
1834.000000	0.951401
1832.000000	0.951406
1830.000000	0.951344
1828.000000	0.951457
1826.000000	0.951557
1824.000000	0.951626
1822.000000	0.951809
1820.000000	0.951889
1818.000000	0.951927
1816.000000	0.952007
1814.000000	0.952164
1812.000000	0.952240
1810.000000	0.952241
1808.000000	0.952316
1806.000000	0.952418
1804.000000	0.952500
1802.000000	0.952470
1800.000000	0.952429
1798.000000	0.952510
1796.000000	0.952610
1794.000000	0.952566
1792.000000	0.952466
1790.000000	0.952630
1788.000000	0.952828
1786.000000	0.952917
1784.000000	0.953019
1782.000000	0.953122
1780.000000	0.953171
1778.000000	0.953304
1776.000000	0.953407
1774.000000	0.953286
1772.000000	0.953037
1770.000000	0.953251
1768.000000	0.953525
1766.000000	0.953730
1764.000000	0.953862
1762.000000	0.953777
1760.000000	0.953899
1758.000000	0.954144
1756.000000	0.954275
1754.000000	0.954368
1752.000000	0.954212
1750.000000	0.954177
1748.000000	0.954469
1746.000000	0.954683
1744.000000	0.954793
1742.000000	0.954785
1740.000000	0.954678
1738.000000	0.954739
1736.000000	0.954768
1734.000000	0.954340
1732.000000	0.954570
1730.000000	0.955165
1728.000000	0.955432
1726.000000	0.955600
1724.000000	0.955646
1722.000000	0.955634
1720.000000	0.955510
1718.000000	0.955027
1716.000000	0.954972
1714.000000	0.955529
1712.000000	0.955924
1710.000000	0.956090
1708.000000	0.956112
1706.000000	0.956025
1704.000000	0.956022
1702.000000	0.955842
1700.000000	0.955295
1698.000000	0.955435
1696.000000	0.955433
1694.000000	0.955738
1692.000000	0.956421
1690.000000	0.956610
1688.000000	0.956704
1686.000000	0.956257
1684.000000	0.955607
1682.000000	0.956073
1680.000000	0.956706
1678.000000	0.956932
1676.000000	0.956789
1674.000000	0.956714
1672.000000	0.956911
1670.000000	0.956750
1668.000000	0.956784
1666.000000	0.957137
1664.000000	0.957222
1662.000000	0.957156
1660.000000	0.957365
1658.000000	0.957527
1656.000000	0.957330
1654.000000	0.956224
1652.000000	0.955630
1650.000000	0.956646
1648.000000	0.957043
1646.000000	0.956840
1644.000000	0.957179
1642.000000	0.957626
1640.000000	0.957763
1638.000000	0.957602
1636.000000	0.957026
1634.000000	0.957035
1632.000000	0.957638
1630.000000	0.957830
1628.000000	0.957740
1626.000000	0.957674
1624.000000	0.957531
1622.000000	0.957498
1620.000000	0.957675
1618.000000	0.957380
1616.000000	0.957119
1614.000000	0.957710
1612.000000	0.958187
1610.000000	0.958084
1608.000000	0.957876
1606.000000	0.957829
1604.000000	0.957807
1602.000000	0.957809
1600.000000	0.957845
1598.000000	0.957915
1596.000000	0.957974
1594.000000	0.958055
1592.000000	0.958179
1590.000000	0.958260
1588.000000	0.958324
1586.000000	0.958326
1584.000000	0.958273
1582.000000	0.958183
1580.000000	0.958231
1578.000000	0.958098
1576.000000	0.957649
1574.000000	0.957951
1572.000000	0.958435
1570.000000	0.958312
1568.000000	0.958333
1566.000000	0.958573
1564.000000	0.958716
1562.000000	0.958540
1560.000000	0.957550
1558.000000	0.957088
1556.000000	0.957841
1554.000000	0.958321
1552.000000	0.958601
1550.000000	0.958769
1548.000000	0.958874
1546.000000	0.958823
1544.000000	0.958577
1542.000000	0.958232
1540.000000	0.957826
1538.000000	0.958144
1536.000000	0.958923
1534.000000	0.959029
1532.000000	0.959069
1530.000000	0.959363
1528.000000	0.959435
1526.000000	0.959341
1524.000000	0.959227
1522.000000	0.958859
1520.000000	0.958801
1518.000000	0.959242
1516.000000	0.959432
1514.000000	0.959536
1512.000000	0.959508
1510.000000	0.959403
1508.000000	0.958924
1506.000000	0.958543
1504.000000	0.959313
1502.000000	0.960351
1500.000000	0.960842
1498.000000	0.960765
1496.000000	0.960111
1494.000000	0.959452
1492.000000	0.958943
1490.000000	0.958627
1488.000000	0.958747
1486.000000	0.959119
1484.000000	0.959433
1482.000000	0.959586
1480.000000	0.959707
1478.000000	0.959743
1476.000000	0.959583
1474.000000	0.959233
1472.000000	0.959118
1470.000000	0.959569
1468.000000	0.959866
1466.000000	0.959671
1464.000000	0.959529
1462.000000	0.959758
1460.000000	0.959725
1458.000000	0.959207
1456.000000	0.958964
1454.000000	0.959408
1452.000000	0.959546
1450.000000	0.959209
1448.000000	0.958967
1446.000000	0.959097
1444.000000	0.959285
1442.000000	0.959358
1440.000000	0.959315
1438.000000	0.959007
1436.000000	0.958686
1434.000000	0.958937
1432.000000	0.959135
1430.000000	0.959032
1428.000000	0.959011
1426.000000	0.959000
1424.000000	0.958872
1422.000000	0.958825
1420.000000	0.958520
1418.000000	0.958379
1416.000000	0.958638
1414.000000	0.958765
1412.000000	0.958733
1410.000000	0.958720
1408.000000	0.958785
1406.000000	0.958651
1404.000000	0.958405
1402.000000	0.958205
1400.000000	0.957928
1398.000000	0.957726
1396.000000	0.957682
1394.000000	0.957631
1392.000000	0.957667
1390.000000	0.957668
1388.000000	0.957535
1386.000000	0.957491
1384.000000	0.957487
1382.000000	0.957345
1380.000000	0.957327
1378.000000	0.957293
1376.000000	0.957118
1374.000000	0.956983
1372.000000	0.956950
1370.000000	0.956885
1368.000000	0.956776
1366.000000	0.956604
1364.000000	0.956426
1362.000000	0.956367
1360.000000	0.956378
1358.000000	0.956338
1356.000000	0.956260
1354.000000	0.956091
1352.000000	0.956023
1350.000000	0.955990
1348.000000	0.955899
1346.000000	0.955913
1344.000000	0.955880
1342.000000	0.955666
1340.000000	0.955478
1338.000000	0.955478
1336.000000	0.955478
1334.000000	0.955347
1332.000000	0.955233
1330.000000	0.955232
1328.000000	0.955189
1326.000000	0.955152
1324.000000	0.955189
1322.000000	0.955105
1320.000000	0.954931
1318.000000	0.954871
1316.000000	0.954885
1314.000000	0.954853
1312.000000	0.954816
1310.000000	0.954767
1308.000000	0.954714
1306.000000	0.954665
1304.000000	0.954534
1302.000000	0.954392
1300.000000	0.954419
1298.000000	0.954462
1296.000000	0.954465
1294.000000	0.954392
1292.000000	0.954328
1290.000000	0.954303
1288.000000	0.954154
1286.000000	0.954095
1284.000000	0.954190
1282.000000	0.954195
1280.000000	0.954163
1278.000000	0.954211
1276.000000	0.954150
1274.000000	0.954124
1272.000000	0.954452
1270.000000	0.955058
1268.000000	0.955889
1266.000000	0.956920
1264.000000	0.957975
1262.000000	0.958684
1260.000000	0.958688
1258.000000	0.958066
1256.000000	0.957179
1254.000000	0.956301
1252.000000	0.955491
1250.000000	0.955054
1248.000000	0.954958
1246.000000	0.954748
1244.000000	0.954497
1242.000000	0.954465
1240.000000	0.954600
1238.000000	0.954665
1236.000000	0.954597
1234.000000	0.954432
1232.000000	0.954288
1230.000000	0.954428
1228.000000	0.954587
1226.000000	0.954400
1224.000000	0.954235
1222.000000	0.954200
1220.000000	0.954247
1218.000000	0.954324
1216.000000	0.954418
1214.000000	0.954391
1212.000000	0.954316
1210.000000	0.954339
1208.000000	0.954390
1206.000000	0.954488
1204.000000	0.954484
1202.000000	0.954383
1200.000000	0.954422
1198.000000	0.954563
1196.000000	0.954751
1194.000000	0.954955
1192.000000	0.954969
1190.000000	0.954888
1188.000000	0.954934
1186.000000	0.955182
1184.000000	0.955407
1182.000000	0.955630
1180.000000	0.955671
1178.000000	0.955647
1176.000000	0.955777
1174.000000	0.955931
1172.000000	0.956156
1170.000000	0.956421
1168.000000	0.956719
1166.000000	0.956828
1164.000000	0.956837
1162.000000	0.956829
1160.000000	0.956881
1158.000000	0.956955
1156.000000	0.957027
1154.000000	0.957179
1152.000000	0.957301
1150.000000	0.957289
1148.000000	0.957461
1146.000000	0.957556
1144.000000	0.957423
1142.000000	0.957513
1140.000000	0.957581
1138.000000	0.957517
1136.000000	0.957609
1134.000000	0.957731
1132.000000	0.957709
1130.000000	0.957473
1128.000000	0.957327
1126.000000	0.957405
1124.000000	0.957507
1122.000000	0.957572
1120.000000	0.957637
1118.000000	0.957797
1116.000000	0.958072
1114.000000	0.958216
1112.000000	0.958206
1110.000000	0.957983
1108.000000	0.957901
1106.000000	0.957800
1104.000000	0.957581
1102.000000	0.957622
1100.000000	0.957521
1098.000000	0.956962
1096.000000	0.956602
1094.000000	0.956302
1092.000000	0.955402
1090.000000	0.954199
1088.000000	0.952669
1086.000000	0.951376
1084.000000	0.950254
1082.000000	0.948329
1080.000000	0.946486
1078.000000	0.945354
1076.000000	0.944247
1074.000000	0.943344
1072.000000	0.942787
1070.000000	0.942175
1068.000000	0.941793
1066.000000	0.941389
1064.000000	0.940421
1062.000000	0.939758
1060.000000	0.939643
1058.000000	0.939549
1056.000000	0.939466
1054.000000	0.939618
1052.000000	0.939961
1050.000000	0.939312
1048.000000	0.938210
1046.000000	0.938018
1044.000000	0.938198
1042.000000	0.938460
1040.000000	0.938525
1038.000000	0.938355
1036.000000	0.938613
1034.000000	0.938964
1032.000000	0.938756
1030.000000	0.938571
1028.000000	0.939314
1026.000000	0.940094
1024.000000	0.940559
1022.000000	0.940795
1020.000000	0.941090
1018.000000	0.941151
1016.000000	0.941044
1014.000000	0.941244
1012.000000	0.941007
1010.000000	0.940389
1008.000000	0.940382
1006.000000	0.940042
1004.000000	0.939351
1002.000000	0.939006
1000.000000	0.938912
