PE IR       SUBTECH     SPECTRUM    ASCII       PEDS        4.00        
   -1
TE109A_074_80K_after_140K.ASC
20/04/21
20:31:10.00
20/04/21
20:31:10.00
Administrator
TE109A, Tuesday, April 21 2020, 074.
1000.000000
#HDR
-1
-1
#GR
cm-1
A
1.0
0.0
6000.000000
-2.000000
2501
8
0.979310
0.903151
#DATA
6000.000000	0.908487
5998.000000	0.908666
5996.000000	0.909070
5994.000000	0.909284
5992.000000	0.909172
5990.000000	0.908995
5988.000000	0.908930
5986.000000	0.909005
5984.000000	0.909050
5982.000000	0.909171
5980.000000	0.909161
5978.000000	0.909017
5976.000000	0.908794
5974.000000	0.908690
5972.000000	0.908751
5970.000000	0.908956
5968.000000	0.909202
5966.000000	0.909240
5964.000000	0.909039
5962.000000	0.908980
5960.000000	0.909300
5958.000000	0.909742
5956.000000	0.909900
5954.000000	0.909786
5952.000000	0.909428
5950.000000	0.909264
5948.000000	0.909160
5946.000000	0.909014
5944.000000	0.909096
5942.000000	0.909067
5940.000000	0.909057
5938.000000	0.909092
5936.000000	0.908819
5934.000000	0.908865
5932.000000	0.908800
5930.000000	0.908886
5928.000000	0.908840
5926.000000	0.908709
5924.000000	0.908673
5922.000000	0.908796
5920.000000	0.908866
5918.000000	0.908790
5916.000000	0.908841
5914.000000	0.909202
5912.000000	0.909577
5910.000000	0.909502
5908.000000	0.909113
5906.000000	0.908689
5904.000000	0.908465
5902.000000	0.908370
5900.000000	0.908507
5898.000000	0.908773
5896.000000	0.908938
5894.000000	0.909002
5892.000000	0.909058
5890.000000	0.908956
5888.000000	0.908698
5886.000000	0.908681
5884.000000	0.908931
5882.000000	0.909321
5880.000000	0.909630
5878.000000	0.909584
5876.000000	0.909417
5874.000000	0.909327
5872.000000	0.909445
5870.000000	0.909651
5868.000000	0.909538
5866.000000	0.909434
5864.000000	0.909193
5862.000000	0.908950
5860.000000	0.908900
5858.000000	0.908948
5856.000000	0.909341
5854.000000	0.909420
5852.000000	0.909281
5850.000000	0.909301
5848.000000	0.909462
5846.000000	0.909758
5844.000000	0.909849
5842.000000	0.909587
5840.000000	0.909405
5838.000000	0.909332
5836.000000	0.909443
5834.000000	0.909581
5832.000000	0.909543
5830.000000	0.909534
5828.000000	0.909535
5826.000000	0.909586
5824.000000	0.909451
5822.000000	0.909114
5820.000000	0.909002
5818.000000	0.909085
5816.000000	0.909232
5814.000000	0.909270
5812.000000	0.909380
5810.000000	0.909757
5808.000000	0.910110
5806.000000	0.910203
5804.000000	0.910132
5802.000000	0.909949
5800.000000	0.909737
5798.000000	0.909607
5796.000000	0.909781
5794.000000	0.909765
5792.000000	0.909585
5790.000000	0.909547
5788.000000	0.909746
5786.000000	0.910053
5784.000000	0.909929
5782.000000	0.909867
5780.000000	0.910128
5778.000000	0.910248
5776.000000	0.910184
5774.000000	0.910036
5772.000000	0.910073
5770.000000	0.910235
5768.000000	0.910349
5766.000000	0.910442
5764.000000	0.910541
5762.000000	0.910617
5760.000000	0.910611
5758.000000	0.910821
5756.000000	0.910660
5754.000000	0.910477
5752.000000	0.910521
5750.000000	0.910600
5748.000000	0.910603
5746.000000	0.910416
5744.000000	0.910137
5742.000000	0.910156
5740.000000	0.910297
5738.000000	0.910538
5736.000000	0.910768
5734.000000	0.910515
5732.000000	0.910154
5730.000000	0.909951
5728.000000	0.910125
5726.000000	0.910704
5724.000000	0.911005
5722.000000	0.910811
5720.000000	0.910681
5718.000000	0.910738
5716.000000	0.910900
5714.000000	0.910603
5712.000000	0.910328
5710.000000	0.910416
5708.000000	0.910840
5706.000000	0.911230
5704.000000	0.911146
5702.000000	0.910906
5700.000000	0.910747
5698.000000	0.910585
5696.000000	0.910462
5694.000000	0.910453
5692.000000	0.910744
5690.000000	0.911109
5688.000000	0.911112
5686.000000	0.910964
5684.000000	0.910912
5682.000000	0.911106
5680.000000	0.911294
5678.000000	0.911275
5676.000000	0.911155
5674.000000	0.911066
5672.000000	0.911140
5670.000000	0.911142
5668.000000	0.911194
5666.000000	0.911295
5664.000000	0.911220
5662.000000	0.911039
5660.000000	0.911105
5658.000000	0.911256
5656.000000	0.911398
5654.000000	0.911166
5652.000000	0.910747
5650.000000	0.910503
5648.000000	0.910623
5646.000000	0.911066
5644.000000	0.911398
5642.000000	0.911281
5640.000000	0.911012
5638.000000	0.910926
5636.000000	0.910939
5634.000000	0.910783
5632.000000	0.910733
5630.000000	0.911028
5628.000000	0.911521
5626.000000	0.911772
5624.000000	0.911804
5622.000000	0.911883
5620.000000	0.911698
5618.000000	0.911452
5616.000000	0.911529
5614.000000	0.911718
5612.000000	0.911536
5610.000000	0.911297
5608.000000	0.911392
5606.000000	0.911648
5604.000000	0.911635
5602.000000	0.911441
5600.000000	0.911506
5598.000000	0.911571
5596.000000	0.911634
5594.000000	0.911590
5592.000000	0.911419
5590.000000	0.911360
5588.000000	0.911387
5586.000000	0.911503
5584.000000	0.911618
5582.000000	0.911757
5580.000000	0.911871
5578.000000	0.911939
5576.000000	0.911925
5574.000000	0.911855
5572.000000	0.911704
5570.000000	0.911612
5568.000000	0.911639
5566.000000	0.911723
5564.000000	0.911769
5562.000000	0.911841
5560.000000	0.911866
5558.000000	0.911780
5556.000000	0.911739
5554.000000	0.911738
5552.000000	0.911734
5550.000000	0.911666
5548.000000	0.911586
5546.000000	0.911676
5544.000000	0.911637
5542.000000	0.911544
5540.000000	0.911578
5538.000000	0.911842
5536.000000	0.912116
5534.000000	0.912167
5532.000000	0.912191
5530.000000	0.912320
5528.000000	0.912439
5526.000000	0.912415
5524.000000	0.912139
5522.000000	0.911945
5520.000000	0.911993
5518.000000	0.912136
5516.000000	0.912112
5514.000000	0.911935
5512.000000	0.912041
5510.000000	0.912284
5508.000000	0.912421
5506.000000	0.912221
5504.000000	0.912089
5502.000000	0.912103
5500.000000	0.912300
5498.000000	0.912539
5496.000000	0.912690
5494.000000	0.912678
5492.000000	0.912531
5490.000000	0.912339
5488.000000	0.912272
5486.000000	0.912177
5484.000000	0.912190
5482.000000	0.912261
5480.000000	0.912300
5478.000000	0.912382
5476.000000	0.912374
5474.000000	0.912481
5472.000000	0.912593
5470.000000	0.912667
5468.000000	0.912702
5466.000000	0.912552
5464.000000	0.912430
5462.000000	0.912397
5460.000000	0.912470
5458.000000	0.912287
5456.000000	0.911947
5454.000000	0.911841
5452.000000	0.912021
5450.000000	0.912282
5448.000000	0.912402
5446.000000	0.912510
5444.000000	0.912571
5442.000000	0.912537
5440.000000	0.912618
5438.000000	0.912727
5436.000000	0.912706
5434.000000	0.912495
5432.000000	0.912343
5430.000000	0.912317
5428.000000	0.912407
5426.000000	0.912563
5424.000000	0.912827
5422.000000	0.912805
5420.000000	0.912756
5418.000000	0.912750
5416.000000	0.912696
5414.000000	0.912446
5412.000000	0.912251
5410.000000	0.912310
5408.000000	0.912538
5406.000000	0.912776
5404.000000	0.912848
5402.000000	0.912727
5400.000000	0.912598
5398.000000	0.912734
5396.000000	0.912879
5394.000000	0.912764
5392.000000	0.912598
5390.000000	0.912652
5388.000000	0.912904
5386.000000	0.913105
5384.000000	0.913240
5382.000000	0.913316
5380.000000	0.913231
5378.000000	0.913070
5376.000000	0.912977
5374.000000	0.912903
5372.000000	0.912857
5370.000000	0.912962
5368.000000	0.913104
5366.000000	0.913121
5364.000000	0.913015
5362.000000	0.912974
5360.000000	0.913074
5358.000000	0.913038
5356.000000	0.913030
5354.000000	0.913006
5352.000000	0.913009
5350.000000	0.913023
5348.000000	0.913072
5346.000000	0.913239
5344.000000	0.913232
5342.000000	0.913165
5340.000000	0.913089
5338.000000	0.913171
5336.000000	0.913373
5334.000000	0.913527
5332.000000	0.913476
5330.000000	0.913303
5328.000000	0.913202
5326.000000	0.913272
5324.000000	0.913388
5322.000000	0.913394
5320.000000	0.913368
5318.000000	0.913450
5316.000000	0.913635
5314.000000	0.913740
5312.000000	0.913838
5310.000000	0.913908
5308.000000	0.913845
5306.000000	0.913714
5304.000000	0.913626
5302.000000	0.913539
5300.000000	0.913453
5298.000000	0.913475
5296.000000	0.913636
5294.000000	0.913727
5292.000000	0.913885
5290.000000	0.914088
5288.000000	0.914269
5286.000000	0.914293
5284.000000	0.914214
5282.000000	0.914099
5280.000000	0.914127
5278.000000	0.914415
5276.000000	0.914738
5274.000000	0.914791
5272.000000	0.914482
5270.000000	0.914100
5268.000000	0.914050
5266.000000	0.914337
5264.000000	0.914531
5262.000000	0.914356
5260.000000	0.914274
5258.000000	0.914534
5256.000000	0.914884
5254.000000	0.915004
5252.000000	0.914988
5250.000000	0.915029
5248.000000	0.915107
5246.000000	0.915047
5244.000000	0.915080
5242.000000	0.915235
5240.000000	0.915416
5238.000000	0.915507
5236.000000	0.915560
5234.000000	0.915678
5232.000000	0.915819
5230.000000	0.916067
5228.000000	0.916169
5226.000000	0.916093
5224.000000	0.916201
5222.000000	0.916448
5220.000000	0.916481
5218.000000	0.916371
5216.000000	0.916385
5214.000000	0.916399
5212.000000	0.916347
5210.000000	0.916567
5208.000000	0.916970
5206.000000	0.917137
5204.000000	0.917064
5202.000000	0.917141
5200.000000	0.917319
5198.000000	0.917561
5196.000000	0.917684
5194.000000	0.917704
5192.000000	0.917674
5190.000000	0.917851
5188.000000	0.918118
5186.000000	0.918297
5184.000000	0.918334
5182.000000	0.918398
5180.000000	0.918558
5178.000000	0.918709
5176.000000	0.918843
5174.000000	0.918885
5172.000000	0.918881
5170.000000	0.918900
5168.000000	0.918960
5166.000000	0.919028
5164.000000	0.919125
5162.000000	0.919259
5160.000000	0.919340
5158.000000	0.919362
5156.000000	0.919441
5154.000000	0.919683
5152.000000	0.919981
5150.000000	0.920165
5148.000000	0.920153
5146.000000	0.920272
5144.000000	0.920525
5142.000000	0.920571
5140.000000	0.920524
5138.000000	0.920703
5136.000000	0.920977
5134.000000	0.921145
5132.000000	0.921236
5130.000000	0.921261
5128.000000	0.921339
5126.000000	0.921489
5124.000000	0.921635
5122.000000	0.921741
5120.000000	0.921967
5118.000000	0.922090
5116.000000	0.922069
5114.000000	0.922063
5112.000000	0.922148
5110.000000	0.922202
5108.000000	0.922283
5106.000000	0.922403
5104.000000	0.922615
5102.000000	0.922744
5100.000000	0.922792
5098.000000	0.922844
5096.000000	0.922881
5094.000000	0.922869
5092.000000	0.922894
5090.000000	0.923092
5088.000000	0.923384
5086.000000	0.923606
5084.000000	0.923613
5082.000000	0.923445
5080.000000	0.923327
5078.000000	0.923361
5076.000000	0.923508
5074.000000	0.923650
5072.000000	0.923636
5070.000000	0.923553
5068.000000	0.923666
5066.000000	0.923913
5064.000000	0.924077
5062.000000	0.924133
5060.000000	0.924091
5058.000000	0.924043
5056.000000	0.924042
5054.000000	0.924121
5052.000000	0.924140
5050.000000	0.924246
5048.000000	0.924372
5046.000000	0.924359
5044.000000	0.924266
5042.000000	0.924342
5040.000000	0.924509
5038.000000	0.924572
5036.000000	0.924689
5034.000000	0.924850
5032.000000	0.924932
5030.000000	0.924891
5028.000000	0.924876
5026.000000	0.924947
5024.000000	0.925052
5022.000000	0.925058
5020.000000	0.924966
5018.000000	0.924969
5016.000000	0.925083
5014.000000	0.925117
5012.000000	0.924972
5010.000000	0.924896
5008.000000	0.925005
5006.000000	0.925215
5004.000000	0.925320
5002.000000	0.925348
5000.000000	0.925445
4998.000000	0.925574
4996.000000	0.925546
4994.000000	0.925353
4992.000000	0.925109
4990.000000	0.925037
4988.000000	0.925158
4986.000000	0.925306
4984.000000	0.925266
4982.000000	0.925250
4980.000000	0.925419
4978.000000	0.925578
4976.000000	0.925531
4974.000000	0.925443
4972.000000	0.925420
4970.000000	0.925447
4968.000000	0.925435
4966.000000	0.925427
4964.000000	0.925454
4962.000000	0.925465
4960.000000	0.925418
4958.000000	0.925348
4956.000000	0.925261
4954.000000	0.925216
4952.000000	0.925235
4950.000000	0.925307
4948.000000	0.925333
4946.000000	0.925321
4944.000000	0.925241
4942.000000	0.925202
4940.000000	0.925272
4938.000000	0.925349
4936.000000	0.925283
4934.000000	0.925304
4932.000000	0.925555
4930.000000	0.925713
4928.000000	0.925456
4926.000000	0.925069
4924.000000	0.925037
4922.000000	0.925284
4920.000000	0.925378
4918.000000	0.925304
4916.000000	0.925335
4914.000000	0.925383
4912.000000	0.925279
4910.000000	0.925149
4908.000000	0.925096
4906.000000	0.925034
4904.000000	0.925072
4902.000000	0.925219
4900.000000	0.925241
4898.000000	0.925132
4896.000000	0.925042
4894.000000	0.925119
4892.000000	0.925173
4890.000000	0.925141
4888.000000	0.925037
4886.000000	0.925001
4884.000000	0.924886
4882.000000	0.924785
4880.000000	0.924745
4878.000000	0.924760
4876.000000	0.924761
4874.000000	0.924734
4872.000000	0.924579
4870.000000	0.924291
4868.000000	0.924055
4866.000000	0.924039
4864.000000	0.924204
4862.000000	0.924325
4860.000000	0.924228
4858.000000	0.924070
4856.000000	0.924058
4854.000000	0.924144
4852.000000	0.924144
4850.000000	0.924094
4848.000000	0.924048
4846.000000	0.923937
4844.000000	0.923883
4842.000000	0.923873
4840.000000	0.923813
4838.000000	0.923753
4836.000000	0.923702
4834.000000	0.923514
4832.000000	0.923290
4830.000000	0.923228
4828.000000	0.923242
4826.000000	0.923135
4824.000000	0.923036
4822.000000	0.923073
4820.000000	0.923069
4818.000000	0.922850
4816.000000	0.922675
4814.000000	0.922688
4812.000000	0.922678
4810.000000	0.922557
4808.000000	0.922407
4806.000000	0.922301
4804.000000	0.922209
4802.000000	0.922103
4800.000000	0.921991
4798.000000	0.921933
4796.000000	0.921911
4794.000000	0.921855
4792.000000	0.921684
4790.000000	0.921435
4788.000000	0.921297
4786.000000	0.921253
4784.000000	0.921149
4782.000000	0.921003
4780.000000	0.920904
4778.000000	0.920810
4776.000000	0.920786
4774.000000	0.920751
4772.000000	0.920594
4770.000000	0.920385
4768.000000	0.920277
4766.000000	0.920219
4764.000000	0.920114
4762.000000	0.919913
4760.000000	0.919734
4758.000000	0.919660
4756.000000	0.919594
4754.000000	0.919448
4752.000000	0.919269
4750.000000	0.919141
4748.000000	0.919089
4746.000000	0.919036
4744.000000	0.918929
4742.000000	0.918825
4740.000000	0.918708
4738.000000	0.918530
4736.000000	0.918367
4734.000000	0.918306
4732.000000	0.918256
4730.000000	0.918172
4728.000000	0.918114
4726.000000	0.918062
4724.000000	0.917920
4722.000000	0.917749
4720.000000	0.917661
4718.000000	0.917658
4716.000000	0.917658
4714.000000	0.917562
4712.000000	0.917368
4710.000000	0.917239
4708.000000	0.917196
4706.000000	0.917123
4704.000000	0.917015
4702.000000	0.916941
4700.000000	0.916792
4698.000000	0.916602
4696.000000	0.916475
4694.000000	0.916411
4692.000000	0.916422
4690.000000	0.916473
4688.000000	0.916441
4686.000000	0.916255
4684.000000	0.916052
4682.000000	0.915942
4680.000000	0.915932
4678.000000	0.915826
4676.000000	0.915654
4674.000000	0.915615
4672.000000	0.915647
4670.000000	0.915568
4668.000000	0.915457
4666.000000	0.915444
4664.000000	0.915442
4662.000000	0.915356
4660.000000	0.915189
4658.000000	0.915083
4656.000000	0.915107
4654.000000	0.915135
4652.000000	0.915051
4650.000000	0.914967
4648.000000	0.914934
4646.000000	0.914882
4644.000000	0.914818
4642.000000	0.914778
4640.000000	0.914723
4638.000000	0.914678
4636.000000	0.914690
4634.000000	0.914717
4632.000000	0.914679
4630.000000	0.914614
4628.000000	0.914590
4626.000000	0.914605
4624.000000	0.914580
4622.000000	0.914514
4620.000000	0.914413
4618.000000	0.914317
4616.000000	0.914301
4614.000000	0.914311
4612.000000	0.914197
4610.000000	0.914107
4608.000000	0.914158
4606.000000	0.914159
4604.000000	0.913989
4602.000000	0.913845
4600.000000	0.913774
4598.000000	0.913771
4596.000000	0.913755
4594.000000	0.913706
4592.000000	0.913632
4590.000000	0.913628
4588.000000	0.913654
4586.000000	0.913628
4584.000000	0.913556
4582.000000	0.913491
4580.000000	0.913478
4578.000000	0.913534
4576.000000	0.913530
4574.000000	0.913454
4572.000000	0.913398
4570.000000	0.913388
4568.000000	0.913353
4566.000000	0.913335
4564.000000	0.913340
4562.000000	0.913359
4560.000000	0.913375
4558.000000	0.913428
4556.000000	0.913472
4554.000000	0.913468
4552.000000	0.913453
4550.000000	0.913360
4548.000000	0.913163
4546.000000	0.913014
4544.000000	0.912932
4542.000000	0.912979
4540.000000	0.913132
4538.000000	0.913191
4536.000000	0.913130
4534.000000	0.913101
4532.000000	0.913083
4530.000000	0.913056
4528.000000	0.913025
4526.000000	0.912921
4524.000000	0.912772
4522.000000	0.912700
4520.000000	0.912773
4518.000000	0.912934
4516.000000	0.913054
4514.000000	0.913061
4512.000000	0.912999
4510.000000	0.912927
4508.000000	0.912855
4506.000000	0.912813
4504.000000	0.912840
4502.000000	0.912856
4500.000000	0.912808
4498.000000	0.912760
4496.000000	0.912766
4494.000000	0.912808
4492.000000	0.912807
4490.000000	0.912699
4488.000000	0.912558
4486.000000	0.912547
4484.000000	0.912628
4482.000000	0.912635
4480.000000	0.912553
4478.000000	0.912538
4476.000000	0.912558
4474.000000	0.912553
4472.000000	0.912463
4470.000000	0.912331
4468.000000	0.912337
4466.000000	0.912399
4464.000000	0.912267
4462.000000	0.912175
4460.000000	0.912326
4458.000000	0.912454
4456.000000	0.912373
4454.000000	0.912307
4452.000000	0.912370
4450.000000	0.912446
4448.000000	0.912445
4446.000000	0.912403
4444.000000	0.912334
4442.000000	0.912291
4440.000000	0.912316
4438.000000	0.912285
4436.000000	0.912255
4434.000000	0.912368
4432.000000	0.912483
4430.000000	0.912428
4428.000000	0.912353
4426.000000	0.912287
4424.000000	0.912217
4422.000000	0.912224
4420.000000	0.912259
4418.000000	0.912293
4416.000000	0.912359
4414.000000	0.912416
4412.000000	0.912431
4410.000000	0.912444
4408.000000	0.912465
4406.000000	0.912511
4404.000000	0.912568
4402.000000	0.912550
4400.000000	0.912391
4398.000000	0.912188
4396.000000	0.912128
4394.000000	0.912171
4392.000000	0.912214
4390.000000	0.912307
4388.000000	0.912394
4386.000000	0.912365
4384.000000	0.912312
4382.000000	0.912341
4380.000000	0.912377
4378.000000	0.912364
4376.000000	0.912298
4374.000000	0.912338
4372.000000	0.912471
4370.000000	0.912558
4368.000000	0.912578
4366.000000	0.912607
4364.000000	0.912613
4362.000000	0.912636
4360.000000	0.912710
4358.000000	0.912823
4356.000000	0.912932
4354.000000	0.912988
4352.000000	0.912932
4350.000000	0.912852
4348.000000	0.912913
4346.000000	0.912990
4344.000000	0.912910
4342.000000	0.912838
4340.000000	0.912928
4338.000000	0.912962
4336.000000	0.912854
4334.000000	0.912786
4332.000000	0.912861
4330.000000	0.912966
4328.000000	0.913065
4326.000000	0.913170
4324.000000	0.913261
4322.000000	0.913272
4320.000000	0.913260
4318.000000	0.913350
4316.000000	0.913387
4314.000000	0.913283
4312.000000	0.913271
4310.000000	0.913387
4308.000000	0.913412
4306.000000	0.913354
4304.000000	0.913355
4302.000000	0.913482
4300.000000	0.913626
4298.000000	0.913700
4296.000000	0.913673
4294.000000	0.913622
4292.000000	0.913600
4290.000000	0.913514
4288.000000	0.913430
4286.000000	0.913496
4284.000000	0.913567
4282.000000	0.913537
4280.000000	0.913550
4278.000000	0.913635
4276.000000	0.913698
4274.000000	0.913784
4272.000000	0.913881
4270.000000	0.913940
4268.000000	0.913998
4266.000000	0.914017
4264.000000	0.914020
4262.000000	0.914104
4260.000000	0.914147
4258.000000	0.914099
4256.000000	0.914026
4254.000000	0.913955
4252.000000	0.913963
4250.000000	0.914043
4248.000000	0.914108
4246.000000	0.914191
4244.000000	0.914243
4242.000000	0.914183
4240.000000	0.914122
4238.000000	0.914103
4236.000000	0.914127
4234.000000	0.914231
4232.000000	0.914346
4230.000000	0.914405
4228.000000	0.914410
4226.000000	0.914367
4224.000000	0.914288
4222.000000	0.914295
4220.000000	0.914382
4218.000000	0.914340
4216.000000	0.914233
4214.000000	0.914258
4212.000000	0.914303
4210.000000	0.914287
4208.000000	0.914273
4206.000000	0.914268
4204.000000	0.914252
4202.000000	0.914285
4200.000000	0.914329
4198.000000	0.914330
4196.000000	0.914291
4194.000000	0.914227
4192.000000	0.914217
4190.000000	0.914242
4188.000000	0.914245
4186.000000	0.914264
4184.000000	0.914269
4182.000000	0.914292
4180.000000	0.914373
4178.000000	0.914417
4176.000000	0.914336
4174.000000	0.914186
4172.000000	0.914162
4170.000000	0.914268
4168.000000	0.914274
4166.000000	0.914211
4164.000000	0.914194
4162.000000	0.914160
4160.000000	0.914144
4158.000000	0.914218
4156.000000	0.914270
4154.000000	0.914262
4152.000000	0.914295
4150.000000	0.914345
4148.000000	0.914322
4146.000000	0.914270
4144.000000	0.914216
4142.000000	0.914186
4140.000000	0.914159
4138.000000	0.914028
4136.000000	0.913931
4134.000000	0.914036
4132.000000	0.914130
4130.000000	0.914077
4128.000000	0.914012
4126.000000	0.914028
4124.000000	0.914062
4122.000000	0.914092
4120.000000	0.914103
4118.000000	0.914048
4116.000000	0.913989
4114.000000	0.914021
4112.000000	0.914014
4110.000000	0.913975
4108.000000	0.913960
4106.000000	0.913908
4104.000000	0.913866
4102.000000	0.913847
4100.000000	0.913815
4098.000000	0.913868
4096.000000	0.913954
4094.000000	0.913953
4092.000000	0.913870
4090.000000	0.913746
4088.000000	0.913729
4086.000000	0.913884
4084.000000	0.913930
4082.000000	0.913754
4080.000000	0.913613
4078.000000	0.913629
4076.000000	0.913693
4074.000000	0.913760
4072.000000	0.913803
4070.000000	0.913739
4068.000000	0.913663
4066.000000	0.913671
4064.000000	0.913706
4062.000000	0.913782
4060.000000	0.913847
4058.000000	0.913808
4056.000000	0.913754
4054.000000	0.913720
4052.000000	0.913665
4050.000000	0.913618
4048.000000	0.913592
4046.000000	0.913553
4044.000000	0.913511
4042.000000	0.913564
4040.000000	0.913639
4038.000000	0.913538
4036.000000	0.913387
4034.000000	0.913404
4032.000000	0.913505
4030.000000	0.913503
4028.000000	0.913431
4026.000000	0.913417
4024.000000	0.913410
4022.000000	0.913385
4020.000000	0.913382
4018.000000	0.913373
4016.000000	0.913321
4014.000000	0.913247
4012.000000	0.913235
4010.000000	0.913265
4008.000000	0.913245
4006.000000	0.913116
4004.000000	0.912951
4002.000000	0.912883
4000.000000	0.912905
3998.000000	0.912941
3996.000000	0.912907
3994.000000	0.912839
3992.000000	0.912839
3990.000000	0.912864
3988.000000	0.912820
3986.000000	0.912815
3984.000000	0.912859
3982.000000	0.912798
3980.000000	0.912728
3978.000000	0.912719
3976.000000	0.912716
3974.000000	0.912736
3972.000000	0.912701
3970.000000	0.912611
3968.000000	0.912533
3966.000000	0.912440
3964.000000	0.912346
3962.000000	0.912341
3960.000000	0.912361
3958.000000	0.912278
3956.000000	0.912190
3954.000000	0.912169
3952.000000	0.912108
3950.000000	0.912021
3948.000000	0.912006
3946.000000	0.911984
3944.000000	0.911833
3942.000000	0.911727
3940.000000	0.911733
3938.000000	0.911739
3936.000000	0.911718
3934.000000	0.911580
3932.000000	0.911372
3930.000000	0.911286
3928.000000	0.911261
3926.000000	0.911179
3924.000000	0.911115
3922.000000	0.911055
3920.000000	0.910925
3918.000000	0.910767
3916.000000	0.910637
3914.000000	0.910567
3912.000000	0.910487
3910.000000	0.910385
3908.000000	0.910351
3906.000000	0.910304
3904.000000	0.910111
3902.000000	0.909851
3900.000000	0.909633
3898.000000	0.909541
3896.000000	0.909640
3894.000000	0.909711
3892.000000	0.909536
3890.000000	0.909361
3888.000000	0.909325
3886.000000	0.909134
3884.000000	0.908937
3882.000000	0.908963
3880.000000	0.908976
3878.000000	0.908971
3876.000000	0.908952
3874.000000	0.908869
3872.000000	0.908698
3870.000000	0.908349
3868.000000	0.908160
3866.000000	0.908212
3864.000000	0.908133
3862.000000	0.908079
3860.000000	0.908201
3858.000000	0.908279
3856.000000	0.908059
3854.000000	0.907317
3852.000000	0.906728
3850.000000	0.907004
3848.000000	0.907511
3846.000000	0.907623
3844.000000	0.907448
3842.000000	0.907296
3840.000000	0.907186
3838.000000	0.906830
3836.000000	0.906519
3834.000000	0.906588
3832.000000	0.906681
3830.000000	0.906649
3828.000000	0.906646
3826.000000	0.906684
3824.000000	0.906679
3822.000000	0.906400
3820.000000	0.906077
3818.000000	0.906015
3816.000000	0.905848
3814.000000	0.905717
3812.000000	0.905914
3810.000000	0.906016
3808.000000	0.905739
3806.000000	0.905441
3804.000000	0.905416
3802.000000	0.905206
3800.000000	0.904883
3798.000000	0.904944
3796.000000	0.905108
3794.000000	0.905182
3792.000000	0.905208
3790.000000	0.905136
3788.000000	0.905028
3786.000000	0.904941
3784.000000	0.904891
3782.000000	0.904835
3780.000000	0.904737
3778.000000	0.904661
3776.000000	0.904606
3774.000000	0.904572
3772.000000	0.904507
3770.000000	0.904287
3768.000000	0.904138
3766.000000	0.904156
3764.000000	0.904184
3762.000000	0.904173
3760.000000	0.904070
3758.000000	0.903984
3756.000000	0.904104
3754.000000	0.904128
3752.000000	0.903677
3750.000000	0.903195
3748.000000	0.903250
3746.000000	0.903397
3744.000000	0.903151
3742.000000	0.903246
3740.000000	0.903787
3738.000000	0.903919
3736.000000	0.903612
3734.000000	0.903465
3732.000000	0.903550
3730.000000	0.903780
3728.000000	0.904055
3726.000000	0.904093
3724.000000	0.904064
3722.000000	0.904132
3720.000000	0.904314
3718.000000	0.904509
3716.000000	0.904614
3714.000000	0.904557
3712.000000	0.904337
3710.000000	0.904357
3708.000000	0.904704
3706.000000	0.905048
3704.000000	0.905260
3702.000000	0.905318
3700.000000	0.905410
3698.000000	0.905644
3696.000000	0.905928
3694.000000	0.906191
3692.000000	0.906385
3690.000000	0.906367
3688.000000	0.906231
3686.000000	0.906483
3684.000000	0.906997
3682.000000	0.907403
3680.000000	0.907758
3678.000000	0.908043
3676.000000	0.908060
3674.000000	0.908189
3672.000000	0.908672
3670.000000	0.908990
3668.000000	0.909373
3666.000000	0.910066
3664.000000	0.910744
3662.000000	0.911274
3660.000000	0.911706
3658.000000	0.912123
3656.000000	0.912543
3654.000000	0.913147
3652.000000	0.913747
3650.000000	0.913987
3648.000000	0.914274
3646.000000	0.915017
3644.000000	0.915927
3642.000000	0.916655
3640.000000	0.917341
3638.000000	0.918088
3636.000000	0.918785
3634.000000	0.919425
3632.000000	0.920067
3630.000000	0.920517
3628.000000	0.920909
3626.000000	0.921730
3624.000000	0.922784
3622.000000	0.923618
3620.000000	0.924128
3618.000000	0.924653
3616.000000	0.925501
3614.000000	0.926448
3612.000000	0.927192
3610.000000	0.927830
3608.000000	0.928553
3606.000000	0.929393
3604.000000	0.930275
3602.000000	0.931101
3600.000000	0.931830
3598.000000	0.932515
3596.000000	0.933142
3594.000000	0.933764
3592.000000	0.934447
3590.000000	0.935083
3588.000000	0.935533
3586.000000	0.935971
3584.000000	0.936701
3582.000000	0.937534
3580.000000	0.938133
3578.000000	0.938608
3576.000000	0.939145
3574.000000	0.939630
3572.000000	0.940051
3570.000000	0.940503
3568.000000	0.940850
3566.000000	0.941151
3564.000000	0.941649
3562.000000	0.942196
3560.000000	0.942554
3558.000000	0.942820
3556.000000	0.943159
3554.000000	0.943529
3552.000000	0.943788
3550.000000	0.944014
3548.000000	0.944275
3546.000000	0.944530
3544.000000	0.944812
3542.000000	0.945118
3540.000000	0.945374
3538.000000	0.945536
3536.000000	0.945675
3534.000000	0.945806
3532.000000	0.945917
3530.000000	0.946085
3528.000000	0.946241
3526.000000	0.946347
3524.000000	0.946534
3522.000000	0.946728
3520.000000	0.946827
3518.000000	0.946936
3516.000000	0.947130
3514.000000	0.947343
3512.000000	0.947534
3510.000000	0.947703
3508.000000	0.947919
3506.000000	0.948160
3504.000000	0.948387
3502.000000	0.948640
3500.000000	0.948924
3498.000000	0.949185
3496.000000	0.949408
3494.000000	0.949609
3492.000000	0.949889
3490.000000	0.950231
3488.000000	0.950515
3486.000000	0.950759
3484.000000	0.951034
3482.000000	0.951368
3480.000000	0.951658
3478.000000	0.951880
3476.000000	0.952182
3474.000000	0.952525
3472.000000	0.952704
3470.000000	0.952899
3468.000000	0.953269
3466.000000	0.953631
3464.000000	0.953924
3462.000000	0.954212
3460.000000	0.954456
3458.000000	0.954755
3456.000000	0.955137
3454.000000	0.955438
3452.000000	0.955698
3450.000000	0.955978
3448.000000	0.956106
3446.000000	0.956214
3444.000000	0.956593
3442.000000	0.957012
3440.000000	0.957287
3438.000000	0.957508
3436.000000	0.957748
3434.000000	0.957915
3432.000000	0.957980
3430.000000	0.958104
3428.000000	0.958265
3426.000000	0.958439
3424.000000	0.958603
3422.000000	0.958708
3420.000000	0.958907
3418.000000	0.959101
3416.000000	0.959090
3414.000000	0.959170
3412.000000	0.959409
3410.000000	0.959570
3408.000000	0.959759
3406.000000	0.960001
3404.000000	0.960117
3402.000000	0.960150
3400.000000	0.960206
3398.000000	0.960312
3396.000000	0.960401
3394.000000	0.960433
3392.000000	0.960508
3390.000000	0.960557
3388.000000	0.960540
3386.000000	0.960583
3384.000000	0.960718
3382.000000	0.960856
3380.000000	0.960955
3378.000000	0.960981
3376.000000	0.961019
3374.000000	0.961121
3372.000000	0.961167
3370.000000	0.961198
3368.000000	0.961255
3366.000000	0.961337
3364.000000	0.961391
3362.000000	0.961424
3360.000000	0.961429
3358.000000	0.961360
3356.000000	0.961370
3354.000000	0.961544
3352.000000	0.961683
3350.000000	0.961750
3348.000000	0.961819
3346.000000	0.961812
3344.000000	0.961768
3342.000000	0.961744
3340.000000	0.961709
3338.000000	0.961732
3336.000000	0.961802
3334.000000	0.961831
3332.000000	0.961865
3330.000000	0.961936
3328.000000	0.961994
3326.000000	0.962040
3324.000000	0.962070
3322.000000	0.962059
3320.000000	0.962112
3318.000000	0.962265
3316.000000	0.962354
3314.000000	0.962281
3312.000000	0.962234
3310.000000	0.962343
3308.000000	0.962431
3306.000000	0.962419
3304.000000	0.962403
3302.000000	0.962428
3300.000000	0.962463
3298.000000	0.962511
3296.000000	0.962612
3294.000000	0.962695
3292.000000	0.962771
3290.000000	0.962859
3288.000000	0.962884
3286.000000	0.962946
3284.000000	0.963017
3282.000000	0.963059
3280.000000	0.963175
3278.000000	0.963239
3276.000000	0.963186
3274.000000	0.963196
3272.000000	0.963309
3270.000000	0.963381
3268.000000	0.963422
3266.000000	0.963487
3264.000000	0.963499
3262.000000	0.963520
3260.000000	0.963653
3258.000000	0.963685
3256.000000	0.963634
3254.000000	0.963727
3252.000000	0.963845
3250.000000	0.963916
3248.000000	0.963920
3246.000000	0.963930
3244.000000	0.964005
3242.000000	0.964089
3240.000000	0.964168
3238.000000	0.964241
3236.000000	0.964327
3234.000000	0.964410
3232.000000	0.964413
3230.000000	0.964366
3228.000000	0.964351
3226.000000	0.964364
3224.000000	0.964425
3222.000000	0.964460
3220.000000	0.964486
3218.000000	0.964582
3216.000000	0.964687
3214.000000	0.964718
3212.000000	0.964751
3210.000000	0.964824
3208.000000	0.964824
3206.000000	0.964805
3204.000000	0.964793
3202.000000	0.964778
3200.000000	0.964801
3198.000000	0.964850
3196.000000	0.964885
3194.000000	0.964834
3192.000000	0.964815
3190.000000	0.964882
3188.000000	0.964893
3186.000000	0.964965
3184.000000	0.965016
3182.000000	0.965014
3180.000000	0.965058
3178.000000	0.965030
3176.000000	0.965045
3174.000000	0.965118
3172.000000	0.965093
3170.000000	0.965059
3168.000000	0.965146
3166.000000	0.965213
3164.000000	0.965222
3162.000000	0.965228
3160.000000	0.965276
3158.000000	0.965330
3156.000000	0.965381
3154.000000	0.965449
3152.000000	0.965516
3150.000000	0.965541
3148.000000	0.965508
3146.000000	0.965483
3144.000000	0.965464
3142.000000	0.965494
3140.000000	0.965537
3138.000000	0.965516
3136.000000	0.965484
3134.000000	0.965543
3132.000000	0.965607
3130.000000	0.965593
3128.000000	0.965617
3126.000000	0.965659
3124.000000	0.965673
3122.000000	0.965720
3120.000000	0.965804
3118.000000	0.965855
3116.000000	0.965878
3114.000000	0.965921
3112.000000	0.965944
3110.000000	0.965966
3108.000000	0.966017
3106.000000	0.966051
3104.000000	0.966038
3102.000000	0.966013
3100.000000	0.966039
3098.000000	0.966085
3096.000000	0.966084
3094.000000	0.966125
3092.000000	0.966166
3090.000000	0.966153
3088.000000	0.966218
3086.000000	0.966296
3084.000000	0.966335
3082.000000	0.966301
3080.000000	0.966226
3078.000000	0.966290
3076.000000	0.966420
3074.000000	0.966445
3072.000000	0.966410
3070.000000	0.966426
3068.000000	0.966440
3066.000000	0.966471
3064.000000	0.966521
3062.000000	0.966487
3060.000000	0.966403
3058.000000	0.966344
3056.000000	0.966353
3054.000000	0.966460
3052.000000	0.966540
3050.000000	0.966525
3048.000000	0.966510
3046.000000	0.966496
3044.000000	0.966412
3042.000000	0.966320
3040.000000	0.966316
3038.000000	0.966340
3036.000000	0.966381
3034.000000	0.966401
3032.000000	0.966398
3030.000000	0.966345
3028.000000	0.966280
3026.000000	0.966282
3024.000000	0.966415
3022.000000	0.966453
3020.000000	0.966367
3018.000000	0.966298
3016.000000	0.966157
3014.000000	0.966003
3012.000000	0.965945
3010.000000	0.965934
3008.000000	0.965971
3006.000000	0.966005
3004.000000	0.965951
3002.000000	0.965912
3000.000000	0.965927
2998.000000	0.965866
2996.000000	0.965833
2994.000000	0.965809
2992.000000	0.965752
2990.000000	0.965749
2988.000000	0.965728
2986.000000	0.965647
2984.000000	0.965631
2982.000000	0.965640
2980.000000	0.965556
2978.000000	0.965537
2976.000000	0.965638
2974.000000	0.965815
2972.000000	0.965981
2970.000000	0.966094
2968.000000	0.966232
2966.000000	0.966378
2964.000000	0.966306
2962.000000	0.966040
2960.000000	0.965668
2958.000000	0.965244
2956.000000	0.964905
2954.000000	0.964670
2952.000000	0.964455
2950.000000	0.964295
2948.000000	0.964190
2946.000000	0.964133
2944.000000	0.964120
2942.000000	0.964117
2940.000000	0.964064
2938.000000	0.963916
2936.000000	0.963732
2934.000000	0.963545
2932.000000	0.963361
2930.000000	0.963223
2928.000000	0.963073
2926.000000	0.962812
2924.000000	0.962413
2922.000000	0.962028
2920.000000	0.961721
2918.000000	0.961520
2916.000000	0.961430
2914.000000	0.961415
2912.000000	0.961463
2910.000000	0.961463
2908.000000	0.961410
2906.000000	0.961369
2904.000000	0.961294
2902.000000	0.961155
2900.000000	0.960984
2898.000000	0.960823
2896.000000	0.960597
2894.000000	0.960445
2892.000000	0.960381
2890.000000	0.960252
2888.000000	0.960119
2886.000000	0.960071
2884.000000	0.960057
2882.000000	0.959923
2880.000000	0.959752
2878.000000	0.959695
2876.000000	0.959649
2874.000000	0.959595
2872.000000	0.959506
2870.000000	0.959424
2868.000000	0.959424
2866.000000	0.959361
2864.000000	0.959153
2862.000000	0.958893
2860.000000	0.958627
2858.000000	0.958310
2856.000000	0.958056
2854.000000	0.957897
2852.000000	0.957697
2850.000000	0.957488
2848.000000	0.957414
2846.000000	0.957459
2844.000000	0.957439
2842.000000	0.957405
2840.000000	0.957424
2838.000000	0.957401
2836.000000	0.957291
2834.000000	0.957174
2832.000000	0.957135
2830.000000	0.957077
2828.000000	0.956974
2826.000000	0.956920
2824.000000	0.956867
2822.000000	0.956800
2820.000000	0.956733
2818.000000	0.956665
2816.000000	0.956604
2814.000000	0.956538
2812.000000	0.956470
2810.000000	0.956427
2808.000000	0.956420
2806.000000	0.956337
2804.000000	0.956208
2802.000000	0.956189
2800.000000	0.956173
2798.000000	0.956132
2796.000000	0.956103
2794.000000	0.956023
2792.000000	0.955959
2790.000000	0.955886
2788.000000	0.955874
2786.000000	0.955907
2784.000000	0.955894
2782.000000	0.955872
2780.000000	0.955777
2778.000000	0.955698
2776.000000	0.955738
2774.000000	0.955755
2772.000000	0.955699
2770.000000	0.955635
2768.000000	0.955579
2766.000000	0.955554
2764.000000	0.955518
2762.000000	0.955461
2760.000000	0.955500
2758.000000	0.955542
2756.000000	0.955516
2754.000000	0.955424
2752.000000	0.955390
2750.000000	0.955419
2748.000000	0.955416
2746.000000	0.955448
2744.000000	0.955515
2742.000000	0.955547
2740.000000	0.955553
2738.000000	0.955596
2736.000000	0.955632
2734.000000	0.955605
2732.000000	0.955578
2730.000000	0.955552
2728.000000	0.955527
2726.000000	0.955582
2724.000000	0.955620
2722.000000	0.955604
2720.000000	0.955630
2718.000000	0.955729
2716.000000	0.955813
2714.000000	0.955812
2712.000000	0.955817
2710.000000	0.955836
2708.000000	0.955823
2706.000000	0.955885
2704.000000	0.956025
2702.000000	0.956090
2700.000000	0.956079
2698.000000	0.956107
2696.000000	0.956159
2694.000000	0.956226
2692.000000	0.956314
2690.000000	0.956367
2688.000000	0.956425
2686.000000	0.956510
2684.000000	0.956557
2682.000000	0.956623
2680.000000	0.956701
2678.000000	0.956722
2676.000000	0.956807
2674.000000	0.956942
2672.000000	0.957056
2670.000000	0.957169
2668.000000	0.957280
2666.000000	0.957341
2664.000000	0.957443
2662.000000	0.957559
2660.000000	0.957612
2658.000000	0.957650
2656.000000	0.957716
2654.000000	0.957826
2652.000000	0.957902
2650.000000	0.957981
2648.000000	0.958105
2646.000000	0.958232
2644.000000	0.958319
2642.000000	0.958387
2640.000000	0.958494
2638.000000	0.958588
2636.000000	0.958719
2634.000000	0.958863
2632.000000	0.958978
2630.000000	0.959105
2628.000000	0.959184
2626.000000	0.959250
2624.000000	0.959401
2622.000000	0.959489
2620.000000	0.959517
2618.000000	0.959617
2616.000000	0.959775
2614.000000	0.959889
2612.000000	0.959963
2610.000000	0.960060
2608.000000	0.960172
2606.000000	0.960291
2604.000000	0.960358
2602.000000	0.960433
2600.000000	0.960518
2598.000000	0.960588
2596.000000	0.960691
2594.000000	0.960800
2592.000000	0.960919
2590.000000	0.961024
2588.000000	0.961099
2586.000000	0.961197
2584.000000	0.961303
2582.000000	0.961358
2580.000000	0.961407
2578.000000	0.961489
2576.000000	0.961595
2574.000000	0.961730
2572.000000	0.961850
2570.000000	0.961880
2568.000000	0.961925
2566.000000	0.962050
2564.000000	0.962169
2562.000000	0.962254
2560.000000	0.962362
2558.000000	0.962456
2556.000000	0.962477
2554.000000	0.962509
2552.000000	0.962595
2550.000000	0.962748
2548.000000	0.962835
2546.000000	0.962832
2544.000000	0.962903
2542.000000	0.963021
2540.000000	0.963133
2538.000000	0.963234
2536.000000	0.963308
2534.000000	0.963351
2532.000000	0.963498
2530.000000	0.963674
2528.000000	0.963748
2526.000000	0.963813
2524.000000	0.963906
2522.000000	0.963944
2520.000000	0.963990
2518.000000	0.964129
2516.000000	0.964265
2514.000000	0.964358
2512.000000	0.964387
2510.000000	0.964493
2508.000000	0.964642
2506.000000	0.964699
2504.000000	0.964787
2502.000000	0.964924
2500.000000	0.965042
2498.000000	0.965116
2496.000000	0.965226
2494.000000	0.965345
2492.000000	0.965419
2490.000000	0.965496
2488.000000	0.965659
2486.000000	0.965855
2484.000000	0.965987
2482.000000	0.966055
2480.000000	0.966169
2478.000000	0.966333
2476.000000	0.966454
2474.000000	0.966557
2472.000000	0.966689
2470.000000	0.966848
2468.000000	0.967033
2466.000000	0.967215
2464.000000	0.967357
2462.000000	0.967541
2460.000000	0.967771
2458.000000	0.968014
2456.000000	0.968165
2454.000000	0.968270
2452.000000	0.968438
2450.000000	0.968582
2448.000000	0.968690
2446.000000	0.968765
2444.000000	0.968879
2442.000000	0.969034
2440.000000	0.969120
2438.000000	0.969183
2436.000000	0.969280
2434.000000	0.969443
2432.000000	0.969621
2430.000000	0.969787
2428.000000	0.969828
2426.000000	0.969857
2424.000000	0.969985
2422.000000	0.970047
2420.000000	0.970088
2418.000000	0.970069
2416.000000	0.970034
2414.000000	0.970100
2412.000000	0.970036
2410.000000	0.969842
2408.000000	0.969706
2406.000000	0.969591
2404.000000	0.969482
2402.000000	0.969362
2400.000000	0.969225
2398.000000	0.969114
2396.000000	0.969029
2394.000000	0.969007
2392.000000	0.969031
2390.000000	0.969047
2388.000000	0.969084
2386.000000	0.969043
2384.000000	0.968964
2382.000000	0.968914
2380.000000	0.968856
2378.000000	0.968870
2376.000000	0.968931
2374.000000	0.968952
2372.000000	0.969010
2370.000000	0.969026
2368.000000	0.968956
2366.000000	0.968894
2364.000000	0.968887
2362.000000	0.968974
2360.000000	0.969033
2358.000000	0.969038
2356.000000	0.969107
2354.000000	0.969206
2352.000000	0.969317
2350.000000	0.969515
2348.000000	0.969777
2346.000000	0.970003
2344.000000	0.970261
2342.000000	0.970595
2340.000000	0.970742
2338.000000	0.970551
2336.000000	0.970253
2334.000000	0.970096
2332.000000	0.970073
2330.000000	0.970088
2328.000000	0.970205
2326.000000	0.970353
2324.000000	0.970390
2322.000000	0.970407
2320.000000	0.970529
2318.000000	0.970658
2316.000000	0.970741
2314.000000	0.970854
2312.000000	0.970973
2310.000000	0.971070
2308.000000	0.971099
2306.000000	0.971194
2304.000000	0.971302
2302.000000	0.971354
2300.000000	0.971472
2298.000000	0.971572
2296.000000	0.971618
2294.000000	0.971719
2292.000000	0.971845
2290.000000	0.971929
2288.000000	0.971949
2286.000000	0.971987
2284.000000	0.972000
2282.000000	0.972035
2280.000000	0.972131
2278.000000	0.972203
2276.000000	0.972217
2274.000000	0.972286
2272.000000	0.972398
2270.000000	0.972474
2268.000000	0.972519
2266.000000	0.972579
2264.000000	0.972613
2262.000000	0.972655
2260.000000	0.972722
2258.000000	0.972746
2256.000000	0.972774
2254.000000	0.972792
2252.000000	0.972824
2250.000000	0.972898
2248.000000	0.972876
2246.000000	0.972849
2244.000000	0.972937
2242.000000	0.973023
2240.000000	0.973010
2238.000000	0.973033
2236.000000	0.973131
2234.000000	0.973179
2232.000000	0.973191
2230.000000	0.973203
2228.000000	0.973225
2226.000000	0.973218
2224.000000	0.973148
2222.000000	0.973114
2220.000000	0.973143
2218.000000	0.973174
2216.000000	0.973221
2214.000000	0.973256
2212.000000	0.973273
2210.000000	0.973264
2208.000000	0.973206
2206.000000	0.973132
2204.000000	0.973058
2202.000000	0.973129
2200.000000	0.973211
2198.000000	0.973140
2196.000000	0.973062
2194.000000	0.973070
2192.000000	0.973069
2190.000000	0.972949
2188.000000	0.972855
2186.000000	0.972853
2184.000000	0.972866
2182.000000	0.972853
2180.000000	0.972806
2178.000000	0.972720
2176.000000	0.972623
2174.000000	0.972594
2172.000000	0.972625
2170.000000	0.972597
2168.000000	0.972461
2166.000000	0.972338
2164.000000	0.972342
2162.000000	0.972371
2160.000000	0.972398
2158.000000	0.972347
2156.000000	0.972198
2154.000000	0.972088
2152.000000	0.972024
2150.000000	0.971961
2148.000000	0.971863
2146.000000	0.971804
2144.000000	0.971686
2142.000000	0.971494
2140.000000	0.971383
2138.000000	0.971343
2136.000000	0.971326
2134.000000	0.971308
2132.000000	0.971198
2130.000000	0.971056
2128.000000	0.970998
2126.000000	0.970926
2124.000000	0.970839
2122.000000	0.970717
2120.000000	0.970609
2118.000000	0.970470
2116.000000	0.970345
2114.000000	0.970279
2112.000000	0.970223
2110.000000	0.970131
2108.000000	0.970047
2106.000000	0.969933
2104.000000	0.969757
2102.000000	0.969562
2100.000000	0.969416
2098.000000	0.969338
2096.000000	0.969257
2094.000000	0.969123
2092.000000	0.968982
2090.000000	0.968869
2088.000000	0.968779
2086.000000	0.968680
2084.000000	0.968607
2082.000000	0.968540
2080.000000	0.968368
2078.000000	0.968211
2076.000000	0.968119
2074.000000	0.968034
2072.000000	0.967933
2070.000000	0.967807
2068.000000	0.967636
2066.000000	0.967525
2064.000000	0.967469
2062.000000	0.967327
2060.000000	0.967121
2058.000000	0.966978
2056.000000	0.966840
2054.000000	0.966695
2052.000000	0.966596
2050.000000	0.966538
2048.000000	0.966453
2046.000000	0.966327
2044.000000	0.966221
2042.000000	0.966139
2040.000000	0.966012
2038.000000	0.965863
2036.000000	0.965764
2034.000000	0.965658
2032.000000	0.965541
2030.000000	0.965461
2028.000000	0.965339
2026.000000	0.965201
2024.000000	0.965112
2022.000000	0.965017
2020.000000	0.964878
2018.000000	0.964779
2016.000000	0.964672
2014.000000	0.964531
2012.000000	0.964431
2010.000000	0.964344
2008.000000	0.964243
2006.000000	0.964131
2004.000000	0.964083
2002.000000	0.964059
2000.000000	0.963967
1998.000000	0.963853
1996.000000	0.963756
1994.000000	0.963740
1992.000000	0.963679
1990.000000	0.963586
1988.000000	0.963506
1986.000000	0.963471
1984.000000	0.963496
1982.000000	0.963448
1980.000000	0.963350
1978.000000	0.963334
1976.000000	0.963336
1974.000000	0.963261
1972.000000	0.963214
1970.000000	0.963210
1968.000000	0.963192
1966.000000	0.963116
1964.000000	0.963123
1962.000000	0.963195
1960.000000	0.963200
1958.000000	0.963115
1956.000000	0.963019
1954.000000	0.963015
1952.000000	0.963134
1950.000000	0.963229
1948.000000	0.963197
1946.000000	0.963149
1944.000000	0.963143
1942.000000	0.963179
1940.000000	0.963226
1938.000000	0.963317
1936.000000	0.963418
1934.000000	0.963444
1932.000000	0.963441
1930.000000	0.963479
1928.000000	0.963489
1926.000000	0.963515
1924.000000	0.963582
1922.000000	0.963627
1920.000000	0.963663
1918.000000	0.963644
1916.000000	0.963733
1914.000000	0.963932
1912.000000	0.964058
1910.000000	0.964148
1908.000000	0.964185
1906.000000	0.964225
1904.000000	0.964279
1902.000000	0.964402
1900.000000	0.964568
1898.000000	0.964652
1896.000000	0.964604
1894.000000	0.964602
1892.000000	0.964691
1890.000000	0.964764
1888.000000	0.964869
1886.000000	0.965049
1884.000000	0.965136
1882.000000	0.965168
1880.000000	0.965177
1878.000000	0.965209
1876.000000	0.965356
1874.000000	0.965448
1872.000000	0.965452
1870.000000	0.965446
1868.000000	0.965457
1866.000000	0.965632
1864.000000	0.965790
1862.000000	0.965853
1860.000000	0.965931
1858.000000	0.966009
1856.000000	0.966040
1854.000000	0.966104
1852.000000	0.966199
1850.000000	0.966317
1848.000000	0.966433
1846.000000	0.966427
1844.000000	0.966250
1842.000000	0.966320
1840.000000	0.966593
1838.000000	0.966735
1836.000000	0.966809
1834.000000	0.966915
1832.000000	0.967028
1830.000000	0.967051
1828.000000	0.967175
1826.000000	0.967340
1824.000000	0.967392
1822.000000	0.967602
1820.000000	0.967810
1818.000000	0.967934
1816.000000	0.968038
1814.000000	0.968178
1812.000000	0.968256
1810.000000	0.968317
1808.000000	0.968409
1806.000000	0.968505
1804.000000	0.968645
1802.000000	0.968757
1800.000000	0.968801
1798.000000	0.968940
1796.000000	0.969191
1794.000000	0.969243
1792.000000	0.969131
1790.000000	0.969331
1788.000000	0.969608
1786.000000	0.969713
1784.000000	0.969821
1782.000000	0.970006
1780.000000	0.970159
1778.000000	0.970381
1776.000000	0.970593
1774.000000	0.970598
1772.000000	0.970391
1770.000000	0.970553
1768.000000	0.970847
1766.000000	0.971052
1764.000000	0.971291
1762.000000	0.971352
1760.000000	0.971491
1758.000000	0.971762
1756.000000	0.971939
1754.000000	0.972174
1752.000000	0.972250
1750.000000	0.972263
1748.000000	0.972490
1746.000000	0.972711
1744.000000	0.972866
1742.000000	0.973011
1740.000000	0.973091
1738.000000	0.973259
1736.000000	0.973349
1734.000000	0.972854
1732.000000	0.972922
1730.000000	0.973507
1728.000000	0.973892
1726.000000	0.974151
1724.000000	0.974232
1722.000000	0.974329
1720.000000	0.974353
1718.000000	0.973971
1716.000000	0.973795
1714.000000	0.974205
1712.000000	0.974574
1710.000000	0.974776
1708.000000	0.974797
1706.000000	0.974737
1704.000000	0.974743
1702.000000	0.974621
1700.000000	0.974070
1698.000000	0.974274
1696.000000	0.974378
1694.000000	0.974571
1692.000000	0.975202
1690.000000	0.975361
1688.000000	0.975378
1686.000000	0.975108
1684.000000	0.974558
1682.000000	0.974868
1680.000000	0.975380
1678.000000	0.975535
1676.000000	0.975452
1674.000000	0.975335
1672.000000	0.975519
1670.000000	0.975508
1668.000000	0.975515
1666.000000	0.975768
1664.000000	0.975846
1662.000000	0.975768
1660.000000	0.975928
1658.000000	0.976076
1656.000000	0.976049
1654.000000	0.975263
1652.000000	0.974609
1650.000000	0.975419
1648.000000	0.975904
1646.000000	0.975694
1644.000000	0.975896
1642.000000	0.976279
1640.000000	0.976369
1638.000000	0.976289
1636.000000	0.975839
1634.000000	0.975688
1632.000000	0.976142
1630.000000	0.976375
1628.000000	0.976327
1626.000000	0.976307
1624.000000	0.976248
1622.000000	0.976195
1620.000000	0.976280
1618.000000	0.976097
1616.000000	0.975858
1614.000000	0.976262
1612.000000	0.976651
1610.000000	0.976614
1608.000000	0.976460
1606.000000	0.976385
1604.000000	0.976429
1602.000000	0.976389
1600.000000	0.976411
1598.000000	0.976470
1596.000000	0.976515
1594.000000	0.976583
1592.000000	0.976628
1590.000000	0.976647
1588.000000	0.976734
1586.000000	0.976800
1584.000000	0.976833
1582.000000	0.976787
1580.000000	0.976772
1578.000000	0.976658
1576.000000	0.976256
1574.000000	0.976454
1572.000000	0.976913
1570.000000	0.976844
1568.000000	0.976932
1566.000000	0.977102
1564.000000	0.977170
1562.000000	0.977173
1560.000000	0.976477
1558.000000	0.975834
1556.000000	0.976353
1554.000000	0.976826
1552.000000	0.977081
1550.000000	0.977261
1548.000000	0.977327
1546.000000	0.977309
1544.000000	0.977138
1542.000000	0.976831
1540.000000	0.976382
1538.000000	0.976566
1536.000000	0.977337
1534.000000	0.977449
1532.000000	0.977436
1530.000000	0.977719
1528.000000	0.977866
1526.000000	0.977791
1524.000000	0.977733
1522.000000	0.977414
1520.000000	0.977249
1518.000000	0.977559
1516.000000	0.977808
1514.000000	0.977989
1512.000000	0.978001
1510.000000	0.977974
1508.000000	0.977646
1506.000000	0.977175
1504.000000	0.977675
1502.000000	0.978681
1500.000000	0.979310
1498.000000	0.979300
1496.000000	0.978617
1494.000000	0.977899
1492.000000	0.977322
1490.000000	0.976861
1488.000000	0.976910
1486.000000	0.977276
1484.000000	0.977678
1482.000000	0.977895
1480.000000	0.977993
1478.000000	0.978025
1476.000000	0.977975
1474.000000	0.977803
1472.000000	0.977644
1470.000000	0.977883
1468.000000	0.978157
1466.000000	0.978059
1464.000000	0.977959
1462.000000	0.978124
1460.000000	0.978193
1458.000000	0.977816
1456.000000	0.977513
1454.000000	0.977916
1452.000000	0.978107
1450.000000	0.977749
1448.000000	0.977338
1446.000000	0.977356
1444.000000	0.977605
1442.000000	0.977775
1440.000000	0.977845
1438.000000	0.977577
1436.000000	0.977184
1434.000000	0.977256
1432.000000	0.977375
1430.000000	0.977379
1428.000000	0.977427
1426.000000	0.977439
1424.000000	0.977287
1422.000000	0.977187
1420.000000	0.977071
1418.000000	0.977012
1416.000000	0.977218
1414.000000	0.977261
1412.000000	0.977271
1410.000000	0.977371
1408.000000	0.977437
1406.000000	0.977260
1404.000000	0.976928
1402.000000	0.976674
1400.000000	0.976420
1398.000000	0.976288
1396.000000	0.976277
1394.000000	0.976192
1392.000000	0.976248
1390.000000	0.976305
1388.000000	0.976289
1386.000000	0.976187
1384.000000	0.976065
1382.000000	0.975992
1380.000000	0.975949
1378.000000	0.975788
1376.000000	0.975713
1374.000000	0.975690
1372.000000	0.975644
1370.000000	0.975634
1368.000000	0.975546
1366.000000	0.975382
1364.000000	0.975199
1362.000000	0.975002
1360.000000	0.974943
1358.000000	0.974986
1356.000000	0.974971
1354.000000	0.974868
1352.000000	0.974708
1350.000000	0.974640
1348.000000	0.974669
1346.000000	0.974584
1344.000000	0.974450
1342.000000	0.974271
1340.000000	0.974126
1338.000000	0.974064
1336.000000	0.974034
1334.000000	0.973980
1332.000000	0.973913
1330.000000	0.973879
1328.000000	0.973822
1326.000000	0.973726
1324.000000	0.973634
1322.000000	0.973556
1320.000000	0.973566
1318.000000	0.973520
1316.000000	0.973439
1314.000000	0.973359
1312.000000	0.973268
1310.000000	0.973178
1308.000000	0.973152
1306.000000	0.973109
1304.000000	0.973025
1302.000000	0.972919
1300.000000	0.972925
1298.000000	0.972892
1296.000000	0.972795
1294.000000	0.972774
1292.000000	0.972734
1290.000000	0.972655
1288.000000	0.972589
1286.000000	0.972514
1284.000000	0.972491
1282.000000	0.972410
1280.000000	0.972426
1278.000000	0.972516
1276.000000	0.972565
1274.000000	0.972661
1272.000000	0.972890
1270.000000	0.973317
1268.000000	0.974054
1266.000000	0.975114
1264.000000	0.976117
1262.000000	0.976786
1260.000000	0.976736
1258.000000	0.975920
1256.000000	0.974818
1254.000000	0.973945
1252.000000	0.973518
1250.000000	0.973376
1248.000000	0.973172
1246.000000	0.972877
1244.000000	0.972754
1242.000000	0.972719
1240.000000	0.972747
1238.000000	0.972891
1236.000000	0.972897
1234.000000	0.972761
1232.000000	0.972656
1230.000000	0.972605
1228.000000	0.972575
1226.000000	0.972688
1224.000000	0.972858
1222.000000	0.972870
1220.000000	0.972956
1218.000000	0.973097
1216.000000	0.973187
1214.000000	0.973137
1212.000000	0.973022
1210.000000	0.972937
1208.000000	0.972881
1206.000000	0.973013
1204.000000	0.973075
1202.000000	0.973039
1200.000000	0.973257
1198.000000	0.973526
1196.000000	0.973545
1194.000000	0.973516
1192.000000	0.973628
1190.000000	0.973872
1188.000000	0.973921
1186.000000	0.973895
1184.000000	0.974176
1182.000000	0.974456
1180.000000	0.974375
1178.000000	0.974430
1176.000000	0.974759
1174.000000	0.975020
1172.000000	0.975125
1170.000000	0.975297
1168.000000	0.975498
1166.000000	0.975571
1164.000000	0.975496
1162.000000	0.975445
1160.000000	0.975643
1158.000000	0.975884
1156.000000	0.975985
1154.000000	0.976003
1152.000000	0.976141
1150.000000	0.976378
1148.000000	0.976308
1146.000000	0.976250
1144.000000	0.976417
1142.000000	0.976481
1140.000000	0.976605
1138.000000	0.976551
1136.000000	0.976500
1134.000000	0.976685
1132.000000	0.976731
1130.000000	0.976671
1128.000000	0.976636
1126.000000	0.976678
1124.000000	0.976693
1122.000000	0.976814
1120.000000	0.977227
1118.000000	0.977522
1116.000000	0.977521
1114.000000	0.977692
1112.000000	0.977824
1110.000000	0.977899
1108.000000	0.978013
1106.000000	0.978193
1104.000000	0.978285
1102.000000	0.978390
1100.000000	0.978748
1098.000000	0.978936
1096.000000	0.979013
1094.000000	0.978768
1092.000000	0.978257
1090.000000	0.977884
1088.000000	0.977598
1086.000000	0.976949
1084.000000	0.976079
1082.000000	0.975358
1080.000000	0.974709
1078.000000	0.974167
1076.000000	0.973479
1074.000000	0.972745
1072.000000	0.971866
1070.000000	0.971183
1068.000000	0.970870
1066.000000	0.970501
1064.000000	0.970140
1062.000000	0.969302
1060.000000	0.968372
1058.000000	0.967759
1056.000000	0.967200
1054.000000	0.966583
1052.000000	0.966209
1050.000000	0.965369
1048.000000	0.964091
1046.000000	0.963474
1044.000000	0.963192
1042.000000	0.962894
1040.000000	0.962534
1038.000000	0.961906
1036.000000	0.961572
1034.000000	0.960802
1032.000000	0.960057
1030.000000	0.959742
1028.000000	0.959877
1026.000000	0.960204
1024.000000	0.960567
1022.000000	0.960693
1020.000000	0.959987
1018.000000	0.959206
1016.000000	0.958549
1014.000000	0.958271
1012.000000	0.958758
1010.000000	0.958860
1008.000000	0.957953
1006.000000	0.956592
1004.000000	0.956482
1002.000000	0.957040
1000.000000	0.957515
