PE IR       SUBTECH     SPECTRUM    ASCII       PEDS        4.00        
   -1
TE109A_056_80K_after_120K.ASC
20/04/21
17:17:08.00
20/04/21
17:17:08.00
Administrator
TE109A, Tuesday, April 21 2020, 056.
1000.000000
#HDR
-1
-1
#GR
cm-1
A
1.0
0.0
6000.000000
-2.000000
2501
8
1.055700
0.966882
#DATA
6000.000000	0.976900
5998.000000	0.977097
5996.000000	0.977511
5994.000000	0.977317
5992.000000	0.976999
5990.000000	0.976691
5988.000000	0.976737
5986.000000	0.976977
5984.000000	0.977119
5982.000000	0.977269
5980.000000	0.977330
5978.000000	0.976807
5976.000000	0.976365
5974.000000	0.975983
5972.000000	0.976688
5970.000000	0.977325
5968.000000	0.977317
5966.000000	0.977250
5964.000000	0.977309
5962.000000	0.977594
5960.000000	0.977620
5958.000000	0.977367
5956.000000	0.977303
5954.000000	0.977276
5952.000000	0.977209
5950.000000	0.977223
5948.000000	0.977225
5946.000000	0.977039
5944.000000	0.976686
5942.000000	0.976574
5940.000000	0.977072
5938.000000	0.977396
5936.000000	0.977191
5934.000000	0.976852
5932.000000	0.976886
5930.000000	0.977154
5928.000000	0.977001
5926.000000	0.976527
5924.000000	0.976566
5922.000000	0.976924
5920.000000	0.977195
5918.000000	0.976969
5916.000000	0.976680
5914.000000	0.976485
5912.000000	0.976213
5910.000000	0.976285
5908.000000	0.976817
5906.000000	0.977129
5904.000000	0.977031
5902.000000	0.976494
5900.000000	0.976394
5898.000000	0.976821
5896.000000	0.977008
5894.000000	0.976816
5892.000000	0.976539
5890.000000	0.976933
5888.000000	0.977570
5886.000000	0.977968
5884.000000	0.977751
5882.000000	0.977384
5880.000000	0.976950
5878.000000	0.976520
5876.000000	0.976283
5874.000000	0.976405
5872.000000	0.976790
5870.000000	0.977084
5868.000000	0.977166
5866.000000	0.976992
5864.000000	0.976870
5862.000000	0.977000
5860.000000	0.977170
5858.000000	0.977065
5856.000000	0.976918
5854.000000	0.976747
5852.000000	0.976745
5850.000000	0.976763
5848.000000	0.976753
5846.000000	0.976696
5844.000000	0.976453
5842.000000	0.976298
5840.000000	0.976315
5838.000000	0.976552
5836.000000	0.976895
5834.000000	0.976894
5832.000000	0.976620
5830.000000	0.976402
5828.000000	0.976723
5826.000000	0.976981
5824.000000	0.976963
5822.000000	0.976961
5820.000000	0.976889
5818.000000	0.976673
5816.000000	0.976252
5814.000000	0.976040
5812.000000	0.976425
5810.000000	0.976889
5808.000000	0.977186
5806.000000	0.977072
5804.000000	0.976693
5802.000000	0.976501
5800.000000	0.976528
5798.000000	0.976829
5796.000000	0.977139
5794.000000	0.977280
5792.000000	0.977222
5790.000000	0.976943
5788.000000	0.976923
5786.000000	0.977022
5784.000000	0.976973
5782.000000	0.977069
5780.000000	0.977082
5778.000000	0.976965
5776.000000	0.976950
5774.000000	0.976892
5772.000000	0.977072
5770.000000	0.977018
5768.000000	0.976705
5766.000000	0.976654
5764.000000	0.976703
5762.000000	0.977087
5760.000000	0.977322
5758.000000	0.977435
5756.000000	0.977345
5754.000000	0.977127
5752.000000	0.976763
5750.000000	0.976383
5748.000000	0.976402
5746.000000	0.976739
5744.000000	0.976967
5742.000000	0.976991
5740.000000	0.977063
5738.000000	0.977167
5736.000000	0.977210
5734.000000	0.977081
5732.000000	0.976937
5730.000000	0.976962
5728.000000	0.977082
5726.000000	0.977335
5724.000000	0.977412
5722.000000	0.977264
5720.000000	0.977003
5718.000000	0.976878
5716.000000	0.976941
5714.000000	0.977121
5712.000000	0.977244
5710.000000	0.976969
5708.000000	0.976660
5706.000000	0.976583
5704.000000	0.976933
5702.000000	0.977632
5700.000000	0.978094
5698.000000	0.978232
5696.000000	0.978018
5694.000000	0.977582
5692.000000	0.977587
5690.000000	0.977615
5688.000000	0.977670
5686.000000	0.977487
5684.000000	0.977191
5682.000000	0.977190
5680.000000	0.977248
5678.000000	0.977418
5676.000000	0.977551
5674.000000	0.977682
5672.000000	0.977722
5670.000000	0.977644
5668.000000	0.977469
5666.000000	0.977217
5664.000000	0.977145
5662.000000	0.977205
5660.000000	0.977229
5658.000000	0.977118
5656.000000	0.977100
5654.000000	0.977132
5652.000000	0.977179
5650.000000	0.977293
5648.000000	0.977427
5646.000000	0.977560
5644.000000	0.977487
5642.000000	0.977345
5640.000000	0.977424
5638.000000	0.977369
5636.000000	0.977370
5634.000000	0.977438
5632.000000	0.977415
5630.000000	0.977346
5628.000000	0.977377
5626.000000	0.977490
5624.000000	0.977585
5622.000000	0.977479
5620.000000	0.977336
5618.000000	0.977274
5616.000000	0.977375
5614.000000	0.977688
5612.000000	0.977989
5610.000000	0.977962
5608.000000	0.977648
5606.000000	0.977475
5604.000000	0.977505
5602.000000	0.977598
5600.000000	0.977534
5598.000000	0.977589
5596.000000	0.977862
5594.000000	0.978010
5592.000000	0.977951
5590.000000	0.977720
5588.000000	0.977740
5586.000000	0.977789
5584.000000	0.977829
5582.000000	0.977856
5580.000000	0.977952
5578.000000	0.978076
5576.000000	0.978136
5574.000000	0.978032
5572.000000	0.977669
5570.000000	0.977487
5568.000000	0.977428
5566.000000	0.977650
5564.000000	0.977749
5562.000000	0.977595
5560.000000	0.977387
5558.000000	0.977171
5556.000000	0.977137
5554.000000	0.977205
5552.000000	0.977195
5550.000000	0.977209
5548.000000	0.977263
5546.000000	0.977347
5544.000000	0.977434
5542.000000	0.977487
5540.000000	0.977708
5538.000000	0.977927
5536.000000	0.978022
5534.000000	0.977970
5532.000000	0.977813
5530.000000	0.977724
5528.000000	0.977718
5526.000000	0.977682
5524.000000	0.977571
5522.000000	0.977296
5520.000000	0.976929
5518.000000	0.976934
5516.000000	0.977277
5514.000000	0.977665
5512.000000	0.977714
5510.000000	0.977517
5508.000000	0.977621
5506.000000	0.977887
5504.000000	0.978258
5502.000000	0.978351
5500.000000	0.978169
5498.000000	0.978089
5496.000000	0.977905
5494.000000	0.977829
5492.000000	0.977827
5490.000000	0.977953
5488.000000	0.977882
5486.000000	0.977606
5484.000000	0.977629
5482.000000	0.977846
5480.000000	0.977997
5478.000000	0.977861
5476.000000	0.977693
5474.000000	0.977534
5472.000000	0.977619
5470.000000	0.977854
5468.000000	0.978025
5466.000000	0.977849
5464.000000	0.977635
5462.000000	0.977587
5460.000000	0.977606
5458.000000	0.977599
5456.000000	0.977677
5454.000000	0.978003
5452.000000	0.978272
5450.000000	0.978079
5448.000000	0.977597
5446.000000	0.977254
5444.000000	0.977352
5442.000000	0.977575
5440.000000	0.977446
5438.000000	0.977191
5436.000000	0.977131
5434.000000	0.977364
5432.000000	0.977594
5430.000000	0.977639
5428.000000	0.977674
5426.000000	0.977803
5424.000000	0.977984
5422.000000	0.977896
5420.000000	0.977685
5418.000000	0.977598
5416.000000	0.977692
5414.000000	0.977851
5412.000000	0.978100
5410.000000	0.978290
5408.000000	0.978214
5406.000000	0.978025
5404.000000	0.978107
5402.000000	0.978181
5400.000000	0.978107
5398.000000	0.977926
5396.000000	0.977999
5394.000000	0.978083
5392.000000	0.977994
5390.000000	0.977893
5388.000000	0.977899
5386.000000	0.977998
5384.000000	0.978090
5382.000000	0.978012
5380.000000	0.977863
5378.000000	0.977631
5376.000000	0.977589
5374.000000	0.977817
5372.000000	0.978084
5370.000000	0.978171
5368.000000	0.978053
5366.000000	0.978025
5364.000000	0.978250
5362.000000	0.978414
5360.000000	0.978308
5358.000000	0.978159
5356.000000	0.978035
5354.000000	0.977894
5352.000000	0.977732
5350.000000	0.977906
5348.000000	0.978007
5346.000000	0.977954
5344.000000	0.977904
5342.000000	0.978111
5340.000000	0.978347
5338.000000	0.978379
5336.000000	0.978382
5334.000000	0.978413
5332.000000	0.978528
5330.000000	0.978771
5328.000000	0.978848
5326.000000	0.978716
5324.000000	0.978579
5322.000000	0.978502
5320.000000	0.978480
5318.000000	0.978524
5316.000000	0.978566
5314.000000	0.978765
5312.000000	0.978874
5310.000000	0.978838
5308.000000	0.978734
5306.000000	0.978895
5304.000000	0.979167
5302.000000	0.979267
5300.000000	0.979280
5298.000000	0.979440
5296.000000	0.979540
5294.000000	0.979497
5292.000000	0.979544
5290.000000	0.979677
5288.000000	0.979784
5286.000000	0.979816
5284.000000	0.979866
5282.000000	0.980006
5280.000000	0.980050
5278.000000	0.979978
5276.000000	0.980075
5274.000000	0.980392
5272.000000	0.980713
5270.000000	0.980752
5268.000000	0.980752
5266.000000	0.980772
5264.000000	0.980809
5262.000000	0.980980
5260.000000	0.981276
5258.000000	0.981464
5256.000000	0.981456
5254.000000	0.981396
5252.000000	0.981405
5250.000000	0.981512
5248.000000	0.981826
5246.000000	0.982165
5244.000000	0.982178
5242.000000	0.982215
5240.000000	0.982480
5238.000000	0.982909
5236.000000	0.983075
5234.000000	0.983043
5232.000000	0.982945
5230.000000	0.982987
5228.000000	0.983290
5226.000000	0.983661
5224.000000	0.983862
5222.000000	0.983947
5220.000000	0.984187
5218.000000	0.984432
5216.000000	0.984675
5214.000000	0.984938
5212.000000	0.985175
5210.000000	0.985399
5208.000000	0.985719
5206.000000	0.986000
5204.000000	0.986062
5202.000000	0.986027
5200.000000	0.986128
5198.000000	0.986278
5196.000000	0.986516
5194.000000	0.986806
5192.000000	0.987167
5190.000000	0.987597
5188.000000	0.987834
5186.000000	0.987905
5184.000000	0.988039
5182.000000	0.988326
5180.000000	0.988529
5178.000000	0.988617
5176.000000	0.988783
5174.000000	0.989062
5172.000000	0.989409
5170.000000	0.989743
5168.000000	0.989981
5166.000000	0.990199
5164.000000	0.990442
5162.000000	0.990561
5160.000000	0.990610
5158.000000	0.990722
5156.000000	0.990919
5154.000000	0.991126
5152.000000	0.991354
5150.000000	0.991651
5148.000000	0.991884
5146.000000	0.992063
5144.000000	0.992237
5142.000000	0.992252
5140.000000	0.992275
5138.000000	0.992525
5136.000000	0.992964
5134.000000	0.993258
5132.000000	0.993255
5130.000000	0.993215
5128.000000	0.993266
5126.000000	0.993443
5124.000000	0.993610
5122.000000	0.993710
5120.000000	0.994056
5118.000000	0.994507
5116.000000	0.994813
5114.000000	0.994899
5112.000000	0.994813
5110.000000	0.994688
5108.000000	0.994582
5106.000000	0.994672
5104.000000	0.994799
5102.000000	0.995058
5100.000000	0.995431
5098.000000	0.995593
5096.000000	0.995421
5094.000000	0.995293
5092.000000	0.995364
5090.000000	0.995478
5088.000000	0.995541
5086.000000	0.995671
5084.000000	0.995783
5082.000000	0.995907
5080.000000	0.995984
5078.000000	0.996009
5076.000000	0.995872
5074.000000	0.995671
5072.000000	0.995606
5070.000000	0.995659
5068.000000	0.995873
5066.000000	0.996211
5064.000000	0.996452
5062.000000	0.996366
5060.000000	0.996193
5058.000000	0.996167
5056.000000	0.996229
5054.000000	0.996374
5052.000000	0.996511
5050.000000	0.996497
5048.000000	0.996418
5046.000000	0.996450
5044.000000	0.996588
5042.000000	0.996623
5040.000000	0.996544
5038.000000	0.996488
5036.000000	0.996620
5034.000000	0.996752
5032.000000	0.996663
5030.000000	0.996477
5028.000000	0.996524
5026.000000	0.996780
5024.000000	0.996939
5022.000000	0.996923
5020.000000	0.996808
5018.000000	0.996648
5016.000000	0.996583
5014.000000	0.996677
5012.000000	0.996694
5010.000000	0.996451
5008.000000	0.996277
5006.000000	0.996343
5004.000000	0.996494
5002.000000	0.996563
5000.000000	0.996635
4998.000000	0.996685
4996.000000	0.996535
4994.000000	0.996327
4992.000000	0.996348
4990.000000	0.996576
4988.000000	0.996765
4986.000000	0.996883
4984.000000	0.996962
4982.000000	0.996941
4980.000000	0.996770
4978.000000	0.996527
4976.000000	0.996429
4974.000000	0.996498
4972.000000	0.996480
4970.000000	0.996254
4968.000000	0.996103
4966.000000	0.996145
4964.000000	0.996213
4962.000000	0.996236
4960.000000	0.996178
4958.000000	0.996039
4956.000000	0.995972
4954.000000	0.995979
4952.000000	0.995977
4950.000000	0.995926
4948.000000	0.995835
4946.000000	0.995733
4944.000000	0.995639
4942.000000	0.995691
4940.000000	0.995768
4938.000000	0.995699
4936.000000	0.995501
4934.000000	0.995301
4932.000000	0.995032
4930.000000	0.994797
4928.000000	0.994749
4926.000000	0.994954
4924.000000	0.995189
4922.000000	0.995305
4920.000000	0.995157
4918.000000	0.994956
4916.000000	0.994852
4914.000000	0.994859
4912.000000	0.994954
4910.000000	0.994872
4908.000000	0.994700
4906.000000	0.994553
4904.000000	0.994509
4902.000000	0.994467
4900.000000	0.994522
4898.000000	0.994519
4896.000000	0.994335
4894.000000	0.994114
4892.000000	0.993971
4890.000000	0.994006
4888.000000	0.994103
4886.000000	0.994102
4884.000000	0.994043
4882.000000	0.994070
4880.000000	0.993936
4878.000000	0.993695
4876.000000	0.993492
4874.000000	0.993323
4872.000000	0.993095
4870.000000	0.992954
4868.000000	0.992901
4866.000000	0.992757
4864.000000	0.992606
4862.000000	0.992539
4860.000000	0.992445
4858.000000	0.992351
4856.000000	0.992262
4854.000000	0.992031
4852.000000	0.991630
4850.000000	0.991523
4848.000000	0.991771
4846.000000	0.991832
4844.000000	0.991565
4842.000000	0.991356
4840.000000	0.991371
4838.000000	0.991352
4836.000000	0.991255
4834.000000	0.991217
4832.000000	0.991155
4830.000000	0.990961
4828.000000	0.990794
4826.000000	0.990699
4824.000000	0.990530
4822.000000	0.990260
4820.000000	0.990059
4818.000000	0.989960
4816.000000	0.989859
4814.000000	0.989656
4812.000000	0.989501
4810.000000	0.989533
4808.000000	0.989518
4806.000000	0.989231
4804.000000	0.988921
4802.000000	0.988753
4800.000000	0.988697
4798.000000	0.988684
4796.000000	0.988547
4794.000000	0.988354
4792.000000	0.988370
4790.000000	0.988337
4788.000000	0.987929
4786.000000	0.987655
4784.000000	0.987810
4782.000000	0.987835
4780.000000	0.987464
4778.000000	0.987081
4776.000000	0.986874
4774.000000	0.986706
4772.000000	0.986554
4770.000000	0.986399
4768.000000	0.986213
4766.000000	0.986069
4764.000000	0.985967
4762.000000	0.985820
4760.000000	0.985574
4758.000000	0.985342
4756.000000	0.985230
4754.000000	0.985197
4752.000000	0.985125
4750.000000	0.984972
4748.000000	0.984780
4746.000000	0.984593
4744.000000	0.984533
4742.000000	0.984549
4740.000000	0.984405
4738.000000	0.984086
4736.000000	0.983906
4734.000000	0.983923
4732.000000	0.983850
4730.000000	0.983692
4728.000000	0.983593
4726.000000	0.983484
4724.000000	0.983364
4722.000000	0.983235
4720.000000	0.983070
4718.000000	0.982887
4716.000000	0.982713
4714.000000	0.982564
4712.000000	0.982474
4710.000000	0.982460
4708.000000	0.982382
4706.000000	0.982278
4704.000000	0.982157
4702.000000	0.981993
4700.000000	0.981790
4698.000000	0.981747
4696.000000	0.981811
4694.000000	0.981757
4692.000000	0.981583
4690.000000	0.981455
4688.000000	0.981228
4686.000000	0.980890
4684.000000	0.980680
4682.000000	0.980570
4680.000000	0.980420
4678.000000	0.980385
4676.000000	0.980356
4674.000000	0.980107
4672.000000	0.979915
4670.000000	0.979964
4668.000000	0.980046
4666.000000	0.980086
4664.000000	0.979994
4662.000000	0.979721
4660.000000	0.979514
4658.000000	0.979520
4656.000000	0.979582
4654.000000	0.979547
4652.000000	0.979505
4650.000000	0.979427
4648.000000	0.979241
4646.000000	0.979070
4644.000000	0.978990
4642.000000	0.978866
4640.000000	0.978707
4638.000000	0.978625
4636.000000	0.978563
4634.000000	0.978576
4632.000000	0.978695
4630.000000	0.978717
4628.000000	0.978595
4626.000000	0.978524
4624.000000	0.978577
4622.000000	0.978502
4620.000000	0.978292
4618.000000	0.978139
4616.000000	0.978131
4614.000000	0.978170
4612.000000	0.978096
4610.000000	0.978003
4608.000000	0.977987
4606.000000	0.977922
4604.000000	0.977752
4602.000000	0.977685
4600.000000	0.977776
4598.000000	0.977792
4596.000000	0.977627
4594.000000	0.977393
4592.000000	0.977260
4590.000000	0.977306
4588.000000	0.977334
4586.000000	0.977137
4584.000000	0.976895
4582.000000	0.976904
4580.000000	0.976962
4578.000000	0.976912
4576.000000	0.976825
4574.000000	0.976795
4572.000000	0.976818
4570.000000	0.976819
4568.000000	0.976744
4566.000000	0.976760
4564.000000	0.976840
4562.000000	0.976842
4560.000000	0.976726
4558.000000	0.976506
4556.000000	0.976222
4554.000000	0.976108
4552.000000	0.976276
4550.000000	0.976468
4548.000000	0.976412
4546.000000	0.976272
4544.000000	0.976336
4542.000000	0.976467
4540.000000	0.976406
4538.000000	0.976227
4536.000000	0.976080
4534.000000	0.975997
4532.000000	0.975980
4530.000000	0.976018
4528.000000	0.975974
4526.000000	0.975890
4524.000000	0.975905
4522.000000	0.975914
4520.000000	0.975841
4518.000000	0.975824
4516.000000	0.975851
4514.000000	0.975850
4512.000000	0.975863
4510.000000	0.975930
4508.000000	0.975951
4506.000000	0.975918
4504.000000	0.975884
4502.000000	0.975761
4500.000000	0.975539
4498.000000	0.975457
4496.000000	0.975505
4494.000000	0.975470
4492.000000	0.975438
4490.000000	0.975501
4488.000000	0.975489
4486.000000	0.975383
4484.000000	0.975263
4482.000000	0.975202
4480.000000	0.975187
4478.000000	0.975122
4476.000000	0.975024
4474.000000	0.975017
4472.000000	0.974995
4470.000000	0.974920
4468.000000	0.974916
4466.000000	0.974952
4464.000000	0.974952
4462.000000	0.974948
4460.000000	0.974990
4458.000000	0.975060
4456.000000	0.975128
4454.000000	0.975207
4452.000000	0.975216
4450.000000	0.975142
4448.000000	0.975043
4446.000000	0.974937
4444.000000	0.974820
4442.000000	0.974773
4440.000000	0.974834
4438.000000	0.974912
4436.000000	0.974884
4434.000000	0.974822
4432.000000	0.974831
4430.000000	0.974846
4428.000000	0.974787
4426.000000	0.974738
4424.000000	0.974819
4422.000000	0.974912
4420.000000	0.974842
4418.000000	0.974731
4416.000000	0.974707
4414.000000	0.974720
4412.000000	0.974725
4410.000000	0.974707
4408.000000	0.974718
4406.000000	0.974806
4404.000000	0.974869
4402.000000	0.974742
4400.000000	0.974529
4398.000000	0.974463
4396.000000	0.974572
4394.000000	0.974703
4392.000000	0.974756
4390.000000	0.974744
4388.000000	0.974755
4386.000000	0.974797
4384.000000	0.974830
4382.000000	0.974847
4380.000000	0.974853
4378.000000	0.974912
4376.000000	0.975047
4374.000000	0.975136
4372.000000	0.975154
4370.000000	0.975136
4368.000000	0.975145
4366.000000	0.975145
4364.000000	0.975158
4362.000000	0.975169
4360.000000	0.975125
4358.000000	0.975116
4356.000000	0.975256
4354.000000	0.975389
4352.000000	0.975405
4350.000000	0.975370
4348.000000	0.975422
4346.000000	0.975585
4344.000000	0.975689
4342.000000	0.975664
4340.000000	0.975590
4338.000000	0.975600
4336.000000	0.975770
4334.000000	0.975922
4332.000000	0.975922
4330.000000	0.975848
4328.000000	0.975902
4326.000000	0.976015
4324.000000	0.975986
4322.000000	0.976016
4320.000000	0.976234
4318.000000	0.976392
4316.000000	0.976468
4314.000000	0.976516
4312.000000	0.976532
4310.000000	0.976620
4308.000000	0.976671
4306.000000	0.976627
4304.000000	0.976577
4302.000000	0.976520
4300.000000	0.976508
4298.000000	0.976525
4296.000000	0.976531
4294.000000	0.976613
4292.000000	0.976738
4290.000000	0.976781
4288.000000	0.976855
4286.000000	0.976973
4284.000000	0.977034
4282.000000	0.977037
4280.000000	0.977023
4278.000000	0.976968
4276.000000	0.976942
4274.000000	0.977060
4272.000000	0.977271
4270.000000	0.977390
4268.000000	0.977361
4266.000000	0.977333
4264.000000	0.977411
4262.000000	0.977535
4260.000000	0.977528
4258.000000	0.977406
4256.000000	0.977511
4254.000000	0.977863
4252.000000	0.978023
4250.000000	0.977947
4248.000000	0.977923
4246.000000	0.977940
4244.000000	0.977972
4242.000000	0.978011
4240.000000	0.977981
4238.000000	0.977924
4236.000000	0.977947
4234.000000	0.977965
4232.000000	0.977989
4230.000000	0.978063
4228.000000	0.978112
4226.000000	0.978126
4224.000000	0.978205
4222.000000	0.978266
4220.000000	0.978265
4218.000000	0.978302
4216.000000	0.978412
4214.000000	0.978457
4212.000000	0.978361
4210.000000	0.978297
4208.000000	0.978322
4206.000000	0.978336
4204.000000	0.978341
4202.000000	0.978344
4200.000000	0.978320
4198.000000	0.978333
4196.000000	0.978391
4194.000000	0.978430
4192.000000	0.978438
4190.000000	0.978451
4188.000000	0.978449
4186.000000	0.978385
4184.000000	0.978320
4182.000000	0.978355
4180.000000	0.978441
4178.000000	0.978467
4176.000000	0.978468
4174.000000	0.978513
4172.000000	0.978560
4170.000000	0.978593
4168.000000	0.978637
4166.000000	0.978658
4164.000000	0.978621
4162.000000	0.978540
4160.000000	0.978515
4158.000000	0.978564
4156.000000	0.978600
4154.000000	0.978608
4152.000000	0.978653
4150.000000	0.978732
4148.000000	0.978709
4146.000000	0.978564
4144.000000	0.978503
4142.000000	0.978600
4140.000000	0.978738
4138.000000	0.978734
4136.000000	0.978604
4134.000000	0.978562
4132.000000	0.978657
4130.000000	0.978684
4128.000000	0.978609
4126.000000	0.978517
4124.000000	0.978445
4122.000000	0.978460
4120.000000	0.978533
4118.000000	0.978560
4116.000000	0.978571
4114.000000	0.978579
4112.000000	0.978599
4110.000000	0.978625
4108.000000	0.978596
4106.000000	0.978499
4104.000000	0.978438
4102.000000	0.978442
4100.000000	0.978412
4098.000000	0.978369
4096.000000	0.978403
4094.000000	0.978410
4092.000000	0.978377
4090.000000	0.978389
4088.000000	0.978402
4086.000000	0.978422
4084.000000	0.978494
4082.000000	0.978485
4080.000000	0.978448
4078.000000	0.978559
4076.000000	0.978649
4074.000000	0.978560
4072.000000	0.978461
4070.000000	0.978485
4068.000000	0.978527
4066.000000	0.978531
4064.000000	0.978552
4062.000000	0.978589
4060.000000	0.978613
4058.000000	0.978626
4056.000000	0.978634
4054.000000	0.978625
4052.000000	0.978548
4050.000000	0.978510
4048.000000	0.978558
4046.000000	0.978609
4044.000000	0.978627
4042.000000	0.978574
4040.000000	0.978468
4038.000000	0.978403
4036.000000	0.978456
4034.000000	0.978557
4032.000000	0.978529
4030.000000	0.978482
4028.000000	0.978540
4026.000000	0.978579
4024.000000	0.978570
4022.000000	0.978564
4020.000000	0.978500
4018.000000	0.978375
4016.000000	0.978384
4014.000000	0.978509
4012.000000	0.978507
4010.000000	0.978337
4008.000000	0.978233
4006.000000	0.978327
4004.000000	0.978388
4002.000000	0.978312
4000.000000	0.978260
3998.000000	0.978232
3996.000000	0.978197
3994.000000	0.978148
3992.000000	0.978076
3990.000000	0.978023
3988.000000	0.977989
3986.000000	0.977993
3984.000000	0.977973
3982.000000	0.977851
3980.000000	0.977773
3978.000000	0.977769
3976.000000	0.977688
3974.000000	0.977597
3972.000000	0.977612
3970.000000	0.977612
3968.000000	0.977535
3966.000000	0.977456
3964.000000	0.977362
3962.000000	0.977292
3960.000000	0.977287
3958.000000	0.977202
3956.000000	0.977046
3954.000000	0.976954
3952.000000	0.976852
3950.000000	0.976695
3948.000000	0.976547
3946.000000	0.976398
3944.000000	0.976270
3942.000000	0.976123
3940.000000	0.975897
3938.000000	0.975733
3936.000000	0.975685
3934.000000	0.975613
3932.000000	0.975505
3930.000000	0.975401
3928.000000	0.975313
3926.000000	0.975179
3924.000000	0.974916
3922.000000	0.974726
3920.000000	0.974681
3918.000000	0.974556
3916.000000	0.974360
3914.000000	0.974199
3912.000000	0.974026
3910.000000	0.973885
3908.000000	0.973864
3906.000000	0.973805
3904.000000	0.973549
3902.000000	0.973253
3900.000000	0.973000
3898.000000	0.972710
3896.000000	0.972519
3894.000000	0.972539
3892.000000	0.972446
3890.000000	0.972188
3888.000000	0.972135
3886.000000	0.972066
3884.000000	0.971855
3882.000000	0.971717
3880.000000	0.971521
3878.000000	0.971474
3876.000000	0.971604
3874.000000	0.971597
3872.000000	0.971471
3870.000000	0.971111
3868.000000	0.970776
3866.000000	0.970670
3864.000000	0.970450
3862.000000	0.970232
3860.000000	0.970282
3858.000000	0.970620
3856.000000	0.970854
3854.000000	0.970217
3852.000000	0.969212
3850.000000	0.969070
3848.000000	0.969457
3846.000000	0.969611
3844.000000	0.969583
3842.000000	0.969549
3840.000000	0.969534
3838.000000	0.969224
3836.000000	0.968786
3834.000000	0.968714
3832.000000	0.968774
3830.000000	0.968726
3828.000000	0.968632
3826.000000	0.968592
3824.000000	0.968720
3822.000000	0.968605
3820.000000	0.968274
3818.000000	0.968211
3816.000000	0.967933
3814.000000	0.967590
3812.000000	0.967817
3810.000000	0.968149
3808.000000	0.968003
3806.000000	0.967606
3804.000000	0.967615
3802.000000	0.967570
3800.000000	0.967172
3798.000000	0.967107
3796.000000	0.967223
3794.000000	0.967299
3792.000000	0.967395
3790.000000	0.967354
3788.000000	0.967271
3786.000000	0.967242
3784.000000	0.967204
3782.000000	0.967159
3780.000000	0.967077
3778.000000	0.967020
3776.000000	0.967109
3774.000000	0.967201
3772.000000	0.967259
3770.000000	0.967194
3768.000000	0.967073
3766.000000	0.967063
3764.000000	0.967085
3762.000000	0.967160
3760.000000	0.967206
3758.000000	0.967222
3756.000000	0.967414
3754.000000	0.967600
3752.000000	0.967389
3750.000000	0.966982
3748.000000	0.967095
3746.000000	0.967450
3744.000000	0.967144
3742.000000	0.966882
3740.000000	0.967260
3738.000000	0.967588
3736.000000	0.967579
3734.000000	0.967479
3732.000000	0.967430
3730.000000	0.967564
3728.000000	0.967854
3726.000000	0.967947
3724.000000	0.967967
3722.000000	0.968124
3720.000000	0.968287
3718.000000	0.968446
3716.000000	0.968731
3714.000000	0.969052
3712.000000	0.969166
3710.000000	0.969208
3708.000000	0.969474
3706.000000	0.969895
3704.000000	0.970264
3702.000000	0.970567
3700.000000	0.970918
3698.000000	0.971381
3696.000000	0.971904
3694.000000	0.972492
3692.000000	0.973086
3690.000000	0.973459
3688.000000	0.973579
3686.000000	0.973947
3684.000000	0.974755
3682.000000	0.975656
3680.000000	0.976557
3678.000000	0.977397
3676.000000	0.977874
3674.000000	0.978380
3672.000000	0.979356
3670.000000	0.980210
3668.000000	0.980867
3666.000000	0.981774
3664.000000	0.982843
3662.000000	0.983796
3660.000000	0.984751
3658.000000	0.985777
3656.000000	0.986663
3654.000000	0.987640
3652.000000	0.988784
3650.000000	0.989628
3648.000000	0.990210
3646.000000	0.991027
3644.000000	0.992139
3642.000000	0.993229
3640.000000	0.994242
3638.000000	0.995218
3636.000000	0.996084
3634.000000	0.997005
3632.000000	0.998127
3630.000000	0.998986
3628.000000	0.999384
3626.000000	1.000187
3624.000000	1.001439
3622.000000	1.002437
3620.000000	1.003104
3618.000000	1.003704
3616.000000	1.004509
3614.000000	1.005445
3612.000000	1.006329
3610.000000	1.007067
3608.000000	1.007646
3606.000000	1.008335
3604.000000	1.009202
3602.000000	1.009975
3600.000000	1.010568
3598.000000	1.011180
3596.000000	1.011882
3594.000000	1.012498
3592.000000	1.013134
3590.000000	1.013853
3588.000000	1.014363
3586.000000	1.014769
3584.000000	1.015285
3582.000000	1.015815
3580.000000	1.016300
3578.000000	1.016702
3576.000000	1.017092
3574.000000	1.017579
3572.000000	1.018134
3570.000000	1.018633
3568.000000	1.018870
3566.000000	1.019016
3564.000000	1.019409
3562.000000	1.019776
3560.000000	1.020017
3558.000000	1.020338
3556.000000	1.020714
3554.000000	1.020954
3552.000000	1.021099
3550.000000	1.021396
3548.000000	1.021669
3546.000000	1.021765
3544.000000	1.021990
3542.000000	1.022353
3540.000000	1.022587
3538.000000	1.022755
3536.000000	1.022980
3534.000000	1.023227
3532.000000	1.023507
3530.000000	1.023731
3528.000000	1.023867
3526.000000	1.024068
3524.000000	1.024237
3522.000000	1.024395
3520.000000	1.024643
3518.000000	1.024879
3516.000000	1.025126
3514.000000	1.025323
3512.000000	1.025426
3510.000000	1.025680
3508.000000	1.026076
3506.000000	1.026354
3504.000000	1.026569
3502.000000	1.026807
3500.000000	1.027054
3498.000000	1.027350
3496.000000	1.027692
3494.000000	1.028012
3492.000000	1.028283
3490.000000	1.028585
3488.000000	1.028900
3486.000000	1.029169
3484.000000	1.029442
3482.000000	1.029793
3480.000000	1.030100
3478.000000	1.030315
3476.000000	1.030692
3474.000000	1.031052
3472.000000	1.031310
3470.000000	1.031624
3468.000000	1.031903
3466.000000	1.032180
3464.000000	1.032482
3462.000000	1.032757
3460.000000	1.033059
3458.000000	1.033358
3456.000000	1.033629
3454.000000	1.033928
3452.000000	1.034146
3450.000000	1.034418
3448.000000	1.034770
3446.000000	1.035092
3444.000000	1.035368
3442.000000	1.035527
3440.000000	1.035687
3438.000000	1.035872
3436.000000	1.036000
3434.000000	1.036190
3432.000000	1.036431
3430.000000	1.036565
3428.000000	1.036742
3426.000000	1.037015
3424.000000	1.037140
3422.000000	1.037182
3420.000000	1.037334
3418.000000	1.037548
3416.000000	1.037752
3414.000000	1.037839
3412.000000	1.037894
3410.000000	1.038004
3408.000000	1.038160
3406.000000	1.038365
3404.000000	1.038454
3402.000000	1.038504
3400.000000	1.038686
3398.000000	1.038869
3396.000000	1.038916
3394.000000	1.038876
3392.000000	1.038883
3390.000000	1.039020
3388.000000	1.039191
3386.000000	1.039303
3384.000000	1.039439
3382.000000	1.039539
3380.000000	1.039567
3378.000000	1.039534
3376.000000	1.039554
3374.000000	1.039619
3372.000000	1.039652
3370.000000	1.039731
3368.000000	1.039883
3366.000000	1.039986
3364.000000	1.040051
3362.000000	1.040084
3360.000000	1.040043
3358.000000	1.040053
3356.000000	1.040142
3354.000000	1.040166
3352.000000	1.040199
3350.000000	1.040239
3348.000000	1.040234
3346.000000	1.040251
3344.000000	1.040281
3342.000000	1.040363
3340.000000	1.040540
3338.000000	1.040605
3336.000000	1.040589
3334.000000	1.040599
3332.000000	1.040614
3330.000000	1.040668
3328.000000	1.040739
3326.000000	1.040760
3324.000000	1.040814
3322.000000	1.040940
3320.000000	1.041009
3318.000000	1.041017
3316.000000	1.041039
3314.000000	1.041069
3312.000000	1.041084
3310.000000	1.041113
3308.000000	1.041246
3306.000000	1.041365
3304.000000	1.041403
3302.000000	1.041441
3300.000000	1.041432
3298.000000	1.041455
3296.000000	1.041547
3294.000000	1.041588
3292.000000	1.041609
3290.000000	1.041710
3288.000000	1.041768
3286.000000	1.041765
3284.000000	1.041809
3282.000000	1.041929
3280.000000	1.041988
3278.000000	1.041939
3276.000000	1.041980
3274.000000	1.042081
3272.000000	1.042111
3270.000000	1.042204
3268.000000	1.042308
3266.000000	1.042384
3264.000000	1.042503
3262.000000	1.042606
3260.000000	1.042631
3258.000000	1.042651
3256.000000	1.042729
3254.000000	1.042767
3252.000000	1.042753
3250.000000	1.042852
3248.000000	1.042999
3246.000000	1.043009
3244.000000	1.043031
3242.000000	1.043189
3240.000000	1.043313
3238.000000	1.043309
3236.000000	1.043223
3234.000000	1.043082
3232.000000	1.043080
3230.000000	1.043217
3228.000000	1.043314
3226.000000	1.043319
3224.000000	1.043323
3222.000000	1.043446
3220.000000	1.043516
3218.000000	1.043483
3216.000000	1.043482
3214.000000	1.043524
3212.000000	1.043603
3210.000000	1.043644
3208.000000	1.043581
3206.000000	1.043534
3204.000000	1.043642
3202.000000	1.043801
3200.000000	1.043848
3198.000000	1.043791
3196.000000	1.043740
3194.000000	1.043804
3192.000000	1.043854
3190.000000	1.043839
3188.000000	1.043833
3186.000000	1.043864
3184.000000	1.043954
3182.000000	1.044054
3180.000000	1.044066
3178.000000	1.044029
3176.000000	1.044034
3174.000000	1.043976
3172.000000	1.043962
3170.000000	1.044029
3168.000000	1.044103
3166.000000	1.044197
3164.000000	1.044208
3162.000000	1.044183
3160.000000	1.044249
3158.000000	1.044313
3156.000000	1.044364
3154.000000	1.044357
3152.000000	1.044326
3150.000000	1.044307
3148.000000	1.044305
3146.000000	1.044374
3144.000000	1.044466
3142.000000	1.044481
3140.000000	1.044479
3138.000000	1.044573
3136.000000	1.044608
3134.000000	1.044551
3132.000000	1.044500
3130.000000	1.044535
3128.000000	1.044582
3126.000000	1.044572
3124.000000	1.044670
3122.000000	1.044759
3120.000000	1.044738
3118.000000	1.044781
3116.000000	1.044862
3114.000000	1.044862
3112.000000	1.044872
3110.000000	1.044891
3108.000000	1.044896
3106.000000	1.044941
3104.000000	1.045001
3102.000000	1.045047
3100.000000	1.045117
3098.000000	1.045120
3096.000000	1.045103
3094.000000	1.045117
3092.000000	1.045110
3090.000000	1.045150
3088.000000	1.045176
3086.000000	1.045160
3084.000000	1.045150
3082.000000	1.045159
3080.000000	1.045187
3078.000000	1.045229
3076.000000	1.045157
3074.000000	1.045051
3072.000000	1.045068
3070.000000	1.045109
3068.000000	1.045111
3066.000000	1.045053
3064.000000	1.045012
3062.000000	1.045005
3060.000000	1.045100
3058.000000	1.045242
3056.000000	1.045194
3054.000000	1.045107
3052.000000	1.045119
3050.000000	1.045136
3048.000000	1.045065
3046.000000	1.045032
3044.000000	1.045003
3042.000000	1.044900
3040.000000	1.044800
3038.000000	1.044806
3036.000000	1.044820
3034.000000	1.044732
3032.000000	1.044638
3030.000000	1.044595
3028.000000	1.044601
3026.000000	1.044641
3024.000000	1.044681
3022.000000	1.044674
3020.000000	1.044480
3018.000000	1.044222
3016.000000	1.044063
3014.000000	1.043898
3012.000000	1.043782
3010.000000	1.043763
3008.000000	1.043722
3006.000000	1.043667
3004.000000	1.043587
3002.000000	1.043493
3000.000000	1.043415
2998.000000	1.043345
2996.000000	1.043234
2994.000000	1.043102
2992.000000	1.042993
2990.000000	1.042900
2988.000000	1.042853
2986.000000	1.042794
2984.000000	1.042565
2982.000000	1.042358
2980.000000	1.042384
2978.000000	1.042454
2976.000000	1.042430
2974.000000	1.042409
2972.000000	1.042422
2970.000000	1.042463
2968.000000	1.042492
2966.000000	1.042367
2964.000000	1.042202
2962.000000	1.041943
2960.000000	1.041463
2958.000000	1.040961
2956.000000	1.040519
2954.000000	1.040171
2952.000000	1.039911
2950.000000	1.039676
2948.000000	1.039423
2946.000000	1.039261
2944.000000	1.039223
2942.000000	1.039155
2940.000000	1.039059
2938.000000	1.038916
2936.000000	1.038573
2934.000000	1.038198
2932.000000	1.037978
2930.000000	1.037732
2928.000000	1.037390
2926.000000	1.037010
2924.000000	1.036534
2922.000000	1.036041
2920.000000	1.035753
2918.000000	1.035566
2916.000000	1.035296
2914.000000	1.035116
2912.000000	1.035086
2910.000000	1.035021
2908.000000	1.034873
2906.000000	1.034750
2904.000000	1.034615
2902.000000	1.034443
2900.000000	1.034253
2898.000000	1.034020
2896.000000	1.033731
2894.000000	1.033462
2892.000000	1.033241
2890.000000	1.033076
2888.000000	1.033002
2886.000000	1.032871
2884.000000	1.032664
2882.000000	1.032503
2880.000000	1.032351
2878.000000	1.032205
2876.000000	1.032037
2874.000000	1.031828
2872.000000	1.031717
2870.000000	1.031725
2868.000000	1.031620
2866.000000	1.031429
2864.000000	1.031242
2862.000000	1.030893
2860.000000	1.030395
2858.000000	1.030029
2856.000000	1.029800
2854.000000	1.029629
2852.000000	1.029457
2850.000000	1.029192
2848.000000	1.028956
2846.000000	1.028847
2844.000000	1.028749
2842.000000	1.028659
2840.000000	1.028593
2838.000000	1.028528
2836.000000	1.028449
2834.000000	1.028335
2832.000000	1.028219
2830.000000	1.028123
2828.000000	1.027952
2826.000000	1.027789
2824.000000	1.027639
2822.000000	1.027575
2820.000000	1.027516
2818.000000	1.027368
2816.000000	1.027259
2814.000000	1.027130
2812.000000	1.026966
2810.000000	1.026834
2808.000000	1.026714
2806.000000	1.026603
2804.000000	1.026520
2802.000000	1.026478
2800.000000	1.026440
2798.000000	1.026279
2796.000000	1.026090
2794.000000	1.026036
2792.000000	1.026042
2790.000000	1.025981
2788.000000	1.025920
2786.000000	1.025813
2784.000000	1.025655
2782.000000	1.025517
2780.000000	1.025429
2778.000000	1.025362
2776.000000	1.025345
2774.000000	1.025335
2772.000000	1.025321
2770.000000	1.025272
2768.000000	1.025212
2766.000000	1.025205
2764.000000	1.025158
2762.000000	1.025099
2760.000000	1.024965
2758.000000	1.024816
2756.000000	1.024801
2754.000000	1.024845
2752.000000	1.024809
2750.000000	1.024753
2748.000000	1.024765
2746.000000	1.024737
2744.000000	1.024735
2742.000000	1.024751
2740.000000	1.024676
2738.000000	1.024607
2736.000000	1.024625
2734.000000	1.024674
2732.000000	1.024683
2730.000000	1.024639
2728.000000	1.024590
2726.000000	1.024586
2724.000000	1.024550
2722.000000	1.024489
2720.000000	1.024554
2718.000000	1.024640
2716.000000	1.024654
2714.000000	1.024674
2712.000000	1.024731
2710.000000	1.024804
2708.000000	1.024879
2706.000000	1.024896
2704.000000	1.024815
2702.000000	1.024719
2700.000000	1.024735
2698.000000	1.024897
2696.000000	1.025013
2694.000000	1.025037
2692.000000	1.025093
2690.000000	1.025132
2688.000000	1.025115
2686.000000	1.025189
2684.000000	1.025249
2682.000000	1.025278
2680.000000	1.025430
2678.000000	1.025598
2676.000000	1.025607
2674.000000	1.025623
2672.000000	1.025775
2670.000000	1.025945
2668.000000	1.026015
2666.000000	1.026072
2664.000000	1.026155
2662.000000	1.026273
2660.000000	1.026374
2658.000000	1.026436
2656.000000	1.026528
2654.000000	1.026636
2652.000000	1.026808
2650.000000	1.026996
2648.000000	1.027126
2646.000000	1.027231
2644.000000	1.027331
2642.000000	1.027482
2640.000000	1.027588
2638.000000	1.027650
2636.000000	1.027796
2634.000000	1.027933
2632.000000	1.028028
2630.000000	1.028151
2628.000000	1.028285
2626.000000	1.028402
2624.000000	1.028568
2622.000000	1.028735
2620.000000	1.028845
2618.000000	1.028973
2616.000000	1.029099
2614.000000	1.029218
2612.000000	1.029411
2610.000000	1.029545
2608.000000	1.029606
2606.000000	1.029696
2604.000000	1.029884
2602.000000	1.030056
2600.000000	1.030224
2598.000000	1.030338
2596.000000	1.030463
2594.000000	1.030614
2592.000000	1.030749
2590.000000	1.030885
2588.000000	1.031012
2586.000000	1.031125
2584.000000	1.031195
2582.000000	1.031351
2580.000000	1.031594
2578.000000	1.031771
2576.000000	1.031897
2574.000000	1.032046
2572.000000	1.032213
2570.000000	1.032316
2568.000000	1.032505
2566.000000	1.032717
2564.000000	1.032800
2562.000000	1.032919
2560.000000	1.033058
2558.000000	1.033219
2556.000000	1.033485
2554.000000	1.033694
2552.000000	1.033803
2550.000000	1.033942
2548.000000	1.034064
2546.000000	1.034169
2544.000000	1.034304
2542.000000	1.034429
2540.000000	1.034654
2538.000000	1.034896
2536.000000	1.035037
2534.000000	1.035215
2532.000000	1.035378
2530.000000	1.035477
2528.000000	1.035576
2526.000000	1.035768
2524.000000	1.035930
2522.000000	1.036122
2520.000000	1.036347
2518.000000	1.036493
2516.000000	1.036654
2514.000000	1.036809
2512.000000	1.036920
2510.000000	1.037139
2508.000000	1.037440
2506.000000	1.037607
2504.000000	1.037742
2502.000000	1.037976
2500.000000	1.038185
2498.000000	1.038359
2496.000000	1.038516
2494.000000	1.038671
2492.000000	1.038858
2490.000000	1.039054
2488.000000	1.039219
2486.000000	1.039363
2484.000000	1.039605
2482.000000	1.039782
2480.000000	1.039925
2478.000000	1.040166
2476.000000	1.040407
2474.000000	1.040535
2472.000000	1.040666
2470.000000	1.040871
2468.000000	1.041049
2466.000000	1.041270
2464.000000	1.041465
2462.000000	1.041592
2460.000000	1.041802
2458.000000	1.042016
2456.000000	1.042123
2454.000000	1.042280
2452.000000	1.042436
2450.000000	1.042595
2448.000000	1.042750
2446.000000	1.042870
2444.000000	1.042916
2442.000000	1.042912
2440.000000	1.043046
2438.000000	1.043235
2436.000000	1.043314
2434.000000	1.043377
2432.000000	1.043422
2430.000000	1.043473
2428.000000	1.043599
2426.000000	1.043634
2424.000000	1.043595
2422.000000	1.043623
2420.000000	1.043606
2418.000000	1.043544
2416.000000	1.043455
2414.000000	1.043317
2412.000000	1.043133
2410.000000	1.043000
2408.000000	1.042902
2406.000000	1.042728
2404.000000	1.042603
2402.000000	1.042517
2400.000000	1.042374
2398.000000	1.042268
2396.000000	1.042266
2394.000000	1.042276
2392.000000	1.042283
2390.000000	1.042284
2388.000000	1.042242
2386.000000	1.042206
2384.000000	1.042220
2382.000000	1.042232
2380.000000	1.042226
2378.000000	1.042231
2376.000000	1.042258
2374.000000	1.042288
2372.000000	1.042340
2370.000000	1.042466
2368.000000	1.042579
2366.000000	1.042660
2364.000000	1.042688
2362.000000	1.042673
2360.000000	1.042674
2358.000000	1.042666
2356.000000	1.042674
2354.000000	1.042796
2352.000000	1.042896
2350.000000	1.043049
2348.000000	1.043396
2346.000000	1.043816
2344.000000	1.044363
2342.000000	1.045092
2340.000000	1.045426
2338.000000	1.045102
2336.000000	1.044553
2334.000000	1.044185
2332.000000	1.044043
2330.000000	1.044102
2328.000000	1.044257
2326.000000	1.044372
2324.000000	1.044492
2322.000000	1.044542
2320.000000	1.044558
2318.000000	1.044645
2316.000000	1.044738
2314.000000	1.044796
2312.000000	1.044831
2310.000000	1.044941
2308.000000	1.045051
2306.000000	1.045249
2304.000000	1.045497
2302.000000	1.045610
2300.000000	1.045633
2298.000000	1.045662
2296.000000	1.045722
2294.000000	1.045775
2292.000000	1.045876
2290.000000	1.046047
2288.000000	1.046197
2286.000000	1.046274
2284.000000	1.046284
2282.000000	1.046256
2280.000000	1.046339
2278.000000	1.046527
2276.000000	1.046652
2274.000000	1.046760
2272.000000	1.046847
2270.000000	1.046876
2268.000000	1.046976
2266.000000	1.047100
2264.000000	1.047147
2262.000000	1.047163
2260.000000	1.047257
2258.000000	1.047354
2256.000000	1.047396
2254.000000	1.047444
2252.000000	1.047456
2250.000000	1.047482
2248.000000	1.047581
2246.000000	1.047682
2244.000000	1.047727
2242.000000	1.047769
2240.000000	1.047854
2238.000000	1.047917
2236.000000	1.047911
2234.000000	1.047974
2232.000000	1.048071
2230.000000	1.048069
2228.000000	1.048037
2226.000000	1.048060
2224.000000	1.048117
2222.000000	1.048164
2220.000000	1.048238
2218.000000	1.048265
2216.000000	1.048277
2214.000000	1.048263
2212.000000	1.048250
2210.000000	1.048308
2208.000000	1.048301
2206.000000	1.048248
2204.000000	1.048266
2202.000000	1.048235
2200.000000	1.048219
2198.000000	1.048196
2196.000000	1.048071
2194.000000	1.048009
2192.000000	1.048049
2190.000000	1.048039
2188.000000	1.048086
2186.000000	1.048080
2184.000000	1.047962
2182.000000	1.047868
2180.000000	1.047860
2178.000000	1.047865
2176.000000	1.047808
2174.000000	1.047759
2172.000000	1.047646
2170.000000	1.047499
2168.000000	1.047402
2166.000000	1.047386
2164.000000	1.047414
2162.000000	1.047428
2160.000000	1.047286
2158.000000	1.047108
2156.000000	1.046986
2154.000000	1.046945
2152.000000	1.046909
2150.000000	1.046881
2148.000000	1.046735
2146.000000	1.046514
2144.000000	1.046415
2142.000000	1.046386
2140.000000	1.046268
2138.000000	1.046079
2136.000000	1.045987
2134.000000	1.045926
2132.000000	1.045836
2130.000000	1.045626
2128.000000	1.045388
2126.000000	1.045230
2124.000000	1.045083
2122.000000	1.044988
2120.000000	1.044898
2118.000000	1.044757
2116.000000	1.044621
2114.000000	1.044431
2112.000000	1.044242
2110.000000	1.044102
2108.000000	1.043916
2106.000000	1.043742
2104.000000	1.043640
2102.000000	1.043508
2100.000000	1.043288
2098.000000	1.043076
2096.000000	1.042943
2094.000000	1.042767
2092.000000	1.042529
2090.000000	1.042321
2088.000000	1.042189
2086.000000	1.042061
2084.000000	1.041894
2082.000000	1.041683
2080.000000	1.041473
2078.000000	1.041334
2076.000000	1.041176
2074.000000	1.040915
2072.000000	1.040692
2070.000000	1.040591
2068.000000	1.040453
2066.000000	1.040225
2064.000000	1.040037
2062.000000	1.039926
2060.000000	1.039821
2058.000000	1.039575
2056.000000	1.039367
2054.000000	1.039262
2052.000000	1.039061
2050.000000	1.038852
2048.000000	1.038666
2046.000000	1.038457
2044.000000	1.038267
2042.000000	1.038164
2040.000000	1.038001
2038.000000	1.037808
2036.000000	1.037600
2034.000000	1.037407
2032.000000	1.037248
2030.000000	1.037076
2028.000000	1.036913
2026.000000	1.036774
2024.000000	1.036578
2022.000000	1.036418
2020.000000	1.036348
2018.000000	1.036255
2016.000000	1.036094
2014.000000	1.035959
2012.000000	1.035821
2010.000000	1.035611
2008.000000	1.035450
2006.000000	1.035404
2004.000000	1.035358
2002.000000	1.035270
2000.000000	1.035108
1998.000000	1.034948
1996.000000	1.034763
1994.000000	1.034633
1992.000000	1.034537
1990.000000	1.034488
1988.000000	1.034471
1986.000000	1.034413
1984.000000	1.034358
1982.000000	1.034294
1980.000000	1.034159
1978.000000	1.034010
1976.000000	1.033940
1974.000000	1.033892
1972.000000	1.033799
1970.000000	1.033777
1968.000000	1.033812
1966.000000	1.033774
1964.000000	1.033724
1962.000000	1.033675
1960.000000	1.033690
1958.000000	1.033652
1956.000000	1.033534
1954.000000	1.033433
1952.000000	1.033485
1950.000000	1.033552
1948.000000	1.033532
1946.000000	1.033553
1944.000000	1.033678
1942.000000	1.033675
1940.000000	1.033581
1938.000000	1.033583
1936.000000	1.033584
1934.000000	1.033617
1932.000000	1.033633
1930.000000	1.033713
1928.000000	1.033798
1926.000000	1.033846
1924.000000	1.033860
1922.000000	1.033901
1920.000000	1.034058
1918.000000	1.034061
1916.000000	1.033995
1914.000000	1.034049
1912.000000	1.034143
1910.000000	1.034229
1908.000000	1.034268
1906.000000	1.034368
1904.000000	1.034427
1902.000000	1.034479
1900.000000	1.034624
1898.000000	1.034720
1896.000000	1.034768
1894.000000	1.034846
1892.000000	1.035001
1890.000000	1.035099
1888.000000	1.035088
1886.000000	1.035090
1884.000000	1.035131
1882.000000	1.035247
1880.000000	1.035364
1878.000000	1.035514
1876.000000	1.035605
1874.000000	1.035717
1872.000000	1.035893
1870.000000	1.035940
1868.000000	1.035862
1866.000000	1.035901
1864.000000	1.036085
1862.000000	1.036322
1860.000000	1.036422
1858.000000	1.036486
1856.000000	1.036602
1854.000000	1.036753
1852.000000	1.036861
1850.000000	1.036946
1848.000000	1.037118
1846.000000	1.037286
1844.000000	1.037164
1842.000000	1.037193
1840.000000	1.037487
1838.000000	1.037696
1836.000000	1.037851
1834.000000	1.038032
1832.000000	1.038247
1830.000000	1.038356
1828.000000	1.038487
1826.000000	1.038673
1824.000000	1.038739
1822.000000	1.038871
1820.000000	1.039079
1818.000000	1.039341
1816.000000	1.039568
1814.000000	1.039802
1812.000000	1.040014
1810.000000	1.040162
1808.000000	1.040359
1806.000000	1.040542
1804.000000	1.040704
1802.000000	1.040852
1800.000000	1.040972
1798.000000	1.041216
1796.000000	1.041536
1794.000000	1.041862
1792.000000	1.041887
1790.000000	1.041907
1788.000000	1.042228
1786.000000	1.042479
1784.000000	1.042626
1782.000000	1.043019
1780.000000	1.043276
1778.000000	1.043449
1776.000000	1.043773
1774.000000	1.044101
1772.000000	1.044135
1770.000000	1.044327
1768.000000	1.044674
1766.000000	1.044983
1764.000000	1.045403
1762.000000	1.045565
1760.000000	1.045706
1758.000000	1.045994
1756.000000	1.046249
1754.000000	1.046674
1752.000000	1.047019
1750.000000	1.047090
1748.000000	1.047317
1746.000000	1.047650
1744.000000	1.047947
1742.000000	1.048211
1740.000000	1.048349
1738.000000	1.048559
1736.000000	1.049090
1734.000000	1.048927
1732.000000	1.048747
1730.000000	1.049102
1728.000000	1.049327
1726.000000	1.049594
1724.000000	1.049846
1722.000000	1.050048
1720.000000	1.050408
1718.000000	1.050424
1716.000000	1.050081
1714.000000	1.050230
1712.000000	1.050517
1710.000000	1.050765
1708.000000	1.050978
1706.000000	1.051035
1704.000000	1.051143
1702.000000	1.051506
1700.000000	1.051132
1698.000000	1.051107
1696.000000	1.051108
1694.000000	1.050900
1692.000000	1.051329
1690.000000	1.051510
1688.000000	1.051839
1686.000000	1.052146
1684.000000	1.051579
1682.000000	1.051431
1680.000000	1.051823
1678.000000	1.052055
1676.000000	1.052122
1674.000000	1.051929
1672.000000	1.052100
1670.000000	1.052111
1668.000000	1.052022
1666.000000	1.052288
1664.000000	1.052415
1662.000000	1.052266
1660.000000	1.052427
1658.000000	1.052670
1656.000000	1.053078
1654.000000	1.053004
1652.000000	1.052080
1650.000000	1.052258
1648.000000	1.052791
1646.000000	1.052561
1644.000000	1.052491
1642.000000	1.052761
1640.000000	1.052870
1638.000000	1.053062
1636.000000	1.052932
1634.000000	1.052560
1632.000000	1.052671
1630.000000	1.052895
1628.000000	1.052958
1626.000000	1.052977
1624.000000	1.052963
1622.000000	1.052760
1620.000000	1.052850
1618.000000	1.052981
1616.000000	1.052718
1614.000000	1.052781
1612.000000	1.053004
1610.000000	1.053026
1608.000000	1.052932
1606.000000	1.052811
1604.000000	1.052860
1602.000000	1.052894
1600.000000	1.052892
1598.000000	1.052842
1596.000000	1.052892
1594.000000	1.052961
1592.000000	1.053013
1590.000000	1.053049
1588.000000	1.053010
1586.000000	1.053075
1584.000000	1.053233
1582.000000	1.053188
1580.000000	1.053229
1578.000000	1.053442
1576.000000	1.053058
1574.000000	1.052838
1572.000000	1.053283
1570.000000	1.053346
1568.000000	1.053287
1566.000000	1.053427
1564.000000	1.053595
1562.000000	1.053939
1560.000000	1.053771
1558.000000	1.052925
1556.000000	1.052846
1554.000000	1.053119
1552.000000	1.053383
1550.000000	1.053572
1548.000000	1.053687
1546.000000	1.053840
1544.000000	1.053911
1542.000000	1.053987
1540.000000	1.053699
1538.000000	1.053314
1536.000000	1.053735
1534.000000	1.054012
1532.000000	1.053865
1530.000000	1.054036
1528.000000	1.054187
1526.000000	1.054069
1524.000000	1.054184
1522.000000	1.054199
1520.000000	1.053853
1518.000000	1.054011
1516.000000	1.054193
1514.000000	1.054208
1512.000000	1.054179
1510.000000	1.054333
1508.000000	1.054543
1506.000000	1.054171
1504.000000	1.054227
1502.000000	1.054912
1500.000000	1.055506
1498.000000	1.055700
1496.000000	1.054951
1494.000000	1.053992
1492.000000	1.053539
1490.000000	1.053288
1488.000000	1.053336
1486.000000	1.053568
1484.000000	1.053721
1482.000000	1.053856
1480.000000	1.053942
1478.000000	1.054074
1476.000000	1.054198
1474.000000	1.054222
1472.000000	1.053942
1470.000000	1.053930
1468.000000	1.054256
1466.000000	1.054331
1464.000000	1.054197
1462.000000	1.054267
1460.000000	1.054535
1458.000000	1.054549
1456.000000	1.054066
1454.000000	1.053952
1452.000000	1.053905
1450.000000	1.053584
1448.000000	1.053354
1446.000000	1.053411
1444.000000	1.053600
1442.000000	1.053650
1440.000000	1.053708
1438.000000	1.053676
1436.000000	1.053354
1434.000000	1.053288
1432.000000	1.053470
1430.000000	1.053522
1428.000000	1.053471
1426.000000	1.053497
1424.000000	1.053519
1422.000000	1.053578
1420.000000	1.053404
1418.000000	1.052991
1416.000000	1.052942
1414.000000	1.053039
1412.000000	1.053103
1410.000000	1.053139
1408.000000	1.053191
1406.000000	1.053076
1404.000000	1.052706
1402.000000	1.052425
1400.000000	1.052235
1398.000000	1.052153
1396.000000	1.052163
1394.000000	1.052054
1392.000000	1.052063
1390.000000	1.052122
1388.000000	1.052050
1386.000000	1.051948
1384.000000	1.051788
1382.000000	1.051554
1380.000000	1.051522
1378.000000	1.051565
1376.000000	1.051488
1374.000000	1.051315
1372.000000	1.051342
1370.000000	1.051332
1368.000000	1.051149
1366.000000	1.051093
1364.000000	1.051007
1362.000000	1.050826
1360.000000	1.050723
1358.000000	1.050626
1356.000000	1.050545
1354.000000	1.050352
1352.000000	1.050165
1350.000000	1.050129
1348.000000	1.050049
1346.000000	1.049985
1344.000000	1.050009
1342.000000	1.049922
1340.000000	1.049813
1338.000000	1.049725
1336.000000	1.049621
1334.000000	1.049424
1332.000000	1.049237
1330.000000	1.049169
1328.000000	1.049101
1326.000000	1.049071
1324.000000	1.049003
1322.000000	1.048862
1320.000000	1.048798
1318.000000	1.048691
1316.000000	1.048559
1314.000000	1.048458
1312.000000	1.048317
1310.000000	1.048333
1308.000000	1.048365
1306.000000	1.048217
1304.000000	1.048010
1302.000000	1.047917
1300.000000	1.047882
1298.000000	1.047811
1296.000000	1.047603
1294.000000	1.047475
1292.000000	1.047549
1290.000000	1.047583
1288.000000	1.047510
1286.000000	1.047248
1284.000000	1.047150
1282.000000	1.047218
1280.000000	1.047223
1278.000000	1.047138
1276.000000	1.047141
1274.000000	1.047275
1272.000000	1.047476
1270.000000	1.047809
1268.000000	1.048468
1266.000000	1.049393
1264.000000	1.050255
1262.000000	1.050732
1260.000000	1.050629
1258.000000	1.050081
1256.000000	1.049274
1254.000000	1.048405
1252.000000	1.047982
1250.000000	1.047766
1248.000000	1.047510
1246.000000	1.047354
1244.000000	1.047346
1242.000000	1.047289
1240.000000	1.047219
1238.000000	1.047343
1236.000000	1.047502
1234.000000	1.047396
1232.000000	1.047177
1230.000000	1.047183
1228.000000	1.047317
1226.000000	1.047473
1224.000000	1.047605
1222.000000	1.047693
1220.000000	1.047912
1218.000000	1.047990
1216.000000	1.047762
1214.000000	1.047760
1212.000000	1.047814
1210.000000	1.047624
1208.000000	1.047444
1206.000000	1.047429
1204.000000	1.047569
1202.000000	1.047688
1200.000000	1.047859
1198.000000	1.048055
1196.000000	1.048193
1194.000000	1.048300
1192.000000	1.048246
1190.000000	1.048392
1188.000000	1.048697
1186.000000	1.048844
1184.000000	1.049041
1182.000000	1.049476
1180.000000	1.049616
1178.000000	1.049374
1176.000000	1.049254
1174.000000	1.049322
1172.000000	1.049516
1170.000000	1.049651
1168.000000	1.050057
1166.000000	1.050496
1164.000000	1.050530
1162.000000	1.050492
1160.000000	1.050598
1158.000000	1.050721
1156.000000	1.050845
1154.000000	1.051008
1152.000000	1.051075
1150.000000	1.050967
1148.000000	1.050980
1146.000000	1.051159
1144.000000	1.051164
1142.000000	1.051191
1140.000000	1.051334
1138.000000	1.051187
1136.000000	1.051149
1134.000000	1.051400
1132.000000	1.051511
1130.000000	1.051375
1128.000000	1.051161
1126.000000	1.051419
1124.000000	1.051817
1122.000000	1.051928
1120.000000	1.051956
1118.000000	1.052233
1116.000000	1.052450
1114.000000	1.052494
1112.000000	1.052506
1110.000000	1.052566
1108.000000	1.052843
1106.000000	1.053251
1104.000000	1.053513
1102.000000	1.053693
1100.000000	1.054028
1098.000000	1.054481
1096.000000	1.054656
1094.000000	1.054478
1092.000000	1.054111
1090.000000	1.053841
1088.000000	1.053168
1086.000000	1.052737
1084.000000	1.053014
1082.000000	1.052853
1080.000000	1.052572
1078.000000	1.052300
1076.000000	1.051501
1074.000000	1.050681
1072.000000	1.050170
1070.000000	1.049773
1068.000000	1.049335
1066.000000	1.048761
1064.000000	1.047726
1062.000000	1.046810
1060.000000	1.046421
1058.000000	1.045425
1056.000000	1.044545
1054.000000	1.044651
1052.000000	1.044226
1050.000000	1.042966
1048.000000	1.041848
1046.000000	1.041503
1044.000000	1.041466
1042.000000	1.041142
1040.000000	1.040344
1038.000000	1.039469
1036.000000	1.038624
1034.000000	1.038281
1032.000000	1.038445
1030.000000	1.037895
1028.000000	1.037388
1026.000000	1.036882
1024.000000	1.036376
1022.000000	1.036713
1020.000000	1.037182
1018.000000	1.036397
1016.000000	1.035959
1014.000000	1.035726
1012.000000	1.034630
1010.000000	1.033546
1008.000000	1.032599
1006.000000	1.032248
1004.000000	1.032260
1002.000000	1.031738
1000.000000	1.031550
