PE IR       SUBTECH     SPECTRUM    ASCII       PEDS        4.00        
   -1
TE109A_080_80K_after_150K.ASC
20/04/21
21:10:12.00
20/04/21
21:10:28.00
Administrator
TE109A, Tuesday, April 21 2020, 080.
1000.000000
#HDR
-1
-1
#GR
cm-1
A
1.0
0.0
6000.000000
-2.000000
2501
8
0.976334
0.897828
#DATA
6000.000000	0.904029
5998.000000	0.903790
5996.000000	0.903645
5994.000000	0.903616
5992.000000	0.903665
5990.000000	0.903571
5988.000000	0.903644
5986.000000	0.903939
5984.000000	0.904148
5982.000000	0.904136
5980.000000	0.903990
5978.000000	0.903835
5976.000000	0.903989
5974.000000	0.904217
5972.000000	0.904416
5970.000000	0.904452
5968.000000	0.904178
5966.000000	0.903855
5964.000000	0.903509
5962.000000	0.903226
5960.000000	0.902983
5958.000000	0.903085
5956.000000	0.903410
5954.000000	0.903600
5952.000000	0.903675
5950.000000	0.903630
5948.000000	0.903712
5946.000000	0.904044
5944.000000	0.904058
5942.000000	0.903767
5940.000000	0.903716
5938.000000	0.903707
5936.000000	0.903729
5934.000000	0.903615
5932.000000	0.903441
5930.000000	0.903745
5928.000000	0.904081
5926.000000	0.904207
5924.000000	0.904080
5922.000000	0.903780
5920.000000	0.903565
5918.000000	0.903652
5916.000000	0.904157
5914.000000	0.904572
5912.000000	0.904676
5910.000000	0.904457
5908.000000	0.904008
5906.000000	0.903849
5904.000000	0.903836
5902.000000	0.904013
5900.000000	0.904104
5898.000000	0.903976
5896.000000	0.903682
5894.000000	0.903597
5892.000000	0.903526
5890.000000	0.903471
5888.000000	0.903549
5886.000000	0.903748
5884.000000	0.904031
5882.000000	0.903916
5880.000000	0.903711
5878.000000	0.903665
5876.000000	0.903650
5874.000000	0.903576
5872.000000	0.903570
5870.000000	0.903612
5868.000000	0.903818
5866.000000	0.903940
5864.000000	0.904107
5862.000000	0.904132
5860.000000	0.903989
5858.000000	0.903944
5856.000000	0.904037
5854.000000	0.903992
5852.000000	0.903967
5850.000000	0.904050
5848.000000	0.904173
5846.000000	0.904248
5844.000000	0.904206
5842.000000	0.904172
5840.000000	0.904017
5838.000000	0.903749
5836.000000	0.903635
5834.000000	0.903904
5832.000000	0.904181
5830.000000	0.904275
5828.000000	0.904046
5826.000000	0.903849
5824.000000	0.904080
5822.000000	0.904329
5820.000000	0.904493
5818.000000	0.904321
5816.000000	0.903992
5814.000000	0.904043
5812.000000	0.904337
5810.000000	0.904694
5808.000000	0.904889
5806.000000	0.904813
5804.000000	0.904921
5802.000000	0.904877
5800.000000	0.904783
5798.000000	0.904664
5796.000000	0.904515
5794.000000	0.904617
5792.000000	0.904799
5790.000000	0.904672
5788.000000	0.904479
5786.000000	0.904321
5784.000000	0.904393
5782.000000	0.904785
5780.000000	0.904866
5778.000000	0.904947
5776.000000	0.904996
5774.000000	0.904992
5772.000000	0.905033
5770.000000	0.904831
5768.000000	0.904729
5766.000000	0.904747
5764.000000	0.904742
5762.000000	0.904705
5760.000000	0.904649
5758.000000	0.904732
5756.000000	0.904935
5754.000000	0.905052
5752.000000	0.905137
5750.000000	0.905057
5748.000000	0.904859
5746.000000	0.904827
5744.000000	0.904792
5742.000000	0.904783
5740.000000	0.904946
5738.000000	0.905149
5736.000000	0.905374
5734.000000	0.905193
5732.000000	0.905065
5730.000000	0.905071
5728.000000	0.905217
5726.000000	0.905063
5724.000000	0.904817
5722.000000	0.904764
5720.000000	0.904952
5718.000000	0.905196
5716.000000	0.905259
5714.000000	0.905301
5712.000000	0.905346
5710.000000	0.905348
5708.000000	0.905309
5706.000000	0.905339
5704.000000	0.905488
5702.000000	0.905372
5700.000000	0.905375
5698.000000	0.905571
5696.000000	0.905776
5694.000000	0.905854
5692.000000	0.905633
5690.000000	0.905600
5688.000000	0.905655
5686.000000	0.905596
5684.000000	0.905501
5682.000000	0.905443
5680.000000	0.905621
5678.000000	0.906039
5676.000000	0.906330
5674.000000	0.906360
5672.000000	0.905916
5670.000000	0.905369
5668.000000	0.905051
5666.000000	0.905174
5664.000000	0.905342
5662.000000	0.905393
5660.000000	0.905484
5658.000000	0.905736
5656.000000	0.906089
5654.000000	0.906174
5652.000000	0.906050
5650.000000	0.905817
5648.000000	0.905780
5646.000000	0.905912
5644.000000	0.905852
5642.000000	0.905793
5640.000000	0.905798
5638.000000	0.905966
5636.000000	0.906021
5634.000000	0.905933
5632.000000	0.905977
5630.000000	0.906172
5628.000000	0.906236
5626.000000	0.906288
5624.000000	0.906288
5622.000000	0.906322
5620.000000	0.906308
5618.000000	0.906254
5616.000000	0.906262
5614.000000	0.906333
5612.000000	0.906330
5610.000000	0.906330
5608.000000	0.906302
5606.000000	0.906196
5604.000000	0.906167
5602.000000	0.906194
5600.000000	0.906295
5598.000000	0.906372
5596.000000	0.906478
5594.000000	0.906578
5592.000000	0.906476
5590.000000	0.906294
5588.000000	0.906287
5586.000000	0.906387
5584.000000	0.906574
5582.000000	0.906677
5580.000000	0.906818
5578.000000	0.906856
5576.000000	0.906796
5574.000000	0.906648
5572.000000	0.906391
5570.000000	0.906379
5568.000000	0.906641
5566.000000	0.906868
5564.000000	0.906842
5562.000000	0.906639
5560.000000	0.906428
5558.000000	0.906513
5556.000000	0.906645
5554.000000	0.906814
5552.000000	0.906759
5550.000000	0.906564
5548.000000	0.906517
5546.000000	0.906452
5544.000000	0.906441
5542.000000	0.906395
5540.000000	0.906551
5538.000000	0.906751
5536.000000	0.906974
5534.000000	0.907065
5532.000000	0.907003
5530.000000	0.906914
5528.000000	0.906854
5526.000000	0.906885
5524.000000	0.906877
5522.000000	0.906737
5520.000000	0.906730
5518.000000	0.906799
5516.000000	0.906874
5514.000000	0.906843
5512.000000	0.906875
5510.000000	0.906905
5508.000000	0.906874
5506.000000	0.906875
5504.000000	0.906916
5502.000000	0.906937
5500.000000	0.907057
5498.000000	0.907244
5496.000000	0.907385
5494.000000	0.907260
5492.000000	0.907175
5490.000000	0.907109
5488.000000	0.907002
5486.000000	0.907009
5484.000000	0.907090
5482.000000	0.907221
5480.000000	0.907316
5478.000000	0.907402
5476.000000	0.907262
5474.000000	0.906952
5472.000000	0.906899
5470.000000	0.907165
5468.000000	0.907400
5466.000000	0.907217
5464.000000	0.906951
5462.000000	0.906964
5460.000000	0.907191
5458.000000	0.907255
5456.000000	0.907188
5454.000000	0.907258
5452.000000	0.907337
5450.000000	0.907324
5448.000000	0.907156
5446.000000	0.907125
5444.000000	0.907181
5442.000000	0.907136
5440.000000	0.907146
5438.000000	0.907097
5436.000000	0.907127
5434.000000	0.907243
5432.000000	0.907404
5430.000000	0.907435
5428.000000	0.907235
5426.000000	0.907080
5424.000000	0.907167
5422.000000	0.907363
5420.000000	0.907651
5418.000000	0.907753
5416.000000	0.907611
5414.000000	0.907377
5412.000000	0.907466
5410.000000	0.907562
5408.000000	0.907553
5406.000000	0.907482
5404.000000	0.907648
5402.000000	0.907912
5400.000000	0.908033
5398.000000	0.907976
5396.000000	0.907876
5394.000000	0.907805
5392.000000	0.907818
5390.000000	0.907824
5388.000000	0.907951
5386.000000	0.908155
5384.000000	0.908312
5382.000000	0.908179
5380.000000	0.908010
5378.000000	0.907922
5376.000000	0.907850
5374.000000	0.907832
5372.000000	0.907747
5370.000000	0.907664
5368.000000	0.907579
5366.000000	0.907664
5364.000000	0.907862
5362.000000	0.907916
5360.000000	0.907947
5358.000000	0.907991
5356.000000	0.907941
5354.000000	0.907770
5352.000000	0.907635
5350.000000	0.907695
5348.000000	0.907917
5346.000000	0.908102
5344.000000	0.908114
5342.000000	0.908071
5340.000000	0.907975
5338.000000	0.907963
5336.000000	0.908033
5334.000000	0.908103
5332.000000	0.908136
5330.000000	0.908209
5328.000000	0.908478
5326.000000	0.908677
5324.000000	0.908555
5322.000000	0.908340
5320.000000	0.908302
5318.000000	0.908436
5316.000000	0.908622
5314.000000	0.908639
5312.000000	0.908530
5310.000000	0.908393
5308.000000	0.908457
5306.000000	0.908609
5304.000000	0.908577
5302.000000	0.908523
5300.000000	0.908584
5298.000000	0.908654
5296.000000	0.908697
5294.000000	0.908757
5292.000000	0.908929
5290.000000	0.908984
5288.000000	0.908994
5286.000000	0.908917
5284.000000	0.908755
5282.000000	0.908668
5280.000000	0.908698
5278.000000	0.908875
5276.000000	0.909100
5274.000000	0.909279
5272.000000	0.909318
5270.000000	0.909320
5268.000000	0.909374
5266.000000	0.909482
5264.000000	0.909613
5262.000000	0.909656
5260.000000	0.909631
5258.000000	0.909627
5256.000000	0.909702
5254.000000	0.909703
5252.000000	0.909681
5250.000000	0.909820
5248.000000	0.909953
5246.000000	0.910045
5244.000000	0.910136
5242.000000	0.910234
5240.000000	0.910277
5238.000000	0.910456
5236.000000	0.910608
5234.000000	0.910589
5232.000000	0.910548
5230.000000	0.910703
5228.000000	0.910796
5226.000000	0.910721
5224.000000	0.910793
5222.000000	0.911061
5220.000000	0.911300
5218.000000	0.911315
5216.000000	0.911288
5214.000000	0.911338
5212.000000	0.911484
5210.000000	0.911567
5208.000000	0.911565
5206.000000	0.911579
5204.000000	0.911697
5202.000000	0.911904
5200.000000	0.912001
5198.000000	0.912039
5196.000000	0.912115
5194.000000	0.912069
5192.000000	0.912100
5190.000000	0.912285
5188.000000	0.912528
5186.000000	0.912541
5184.000000	0.912512
5182.000000	0.912673
5180.000000	0.912804
5178.000000	0.912927
5176.000000	0.913099
5174.000000	0.913340
5172.000000	0.913463
5170.000000	0.913396
5168.000000	0.913319
5166.000000	0.913321
5164.000000	0.913471
5162.000000	0.913626
5160.000000	0.913630
5158.000000	0.913521
5156.000000	0.913616
5154.000000	0.913962
5152.000000	0.914211
5150.000000	0.914321
5148.000000	0.914394
5146.000000	0.914555
5144.000000	0.914692
5142.000000	0.914747
5140.000000	0.914664
5138.000000	0.914708
5136.000000	0.914933
5134.000000	0.915195
5132.000000	0.915411
5130.000000	0.915564
5128.000000	0.915552
5126.000000	0.915460
5124.000000	0.915551
5122.000000	0.915885
5120.000000	0.916099
5118.000000	0.916038
5116.000000	0.915991
5114.000000	0.916186
5112.000000	0.916558
5110.000000	0.916650
5108.000000	0.916622
5106.000000	0.916584
5104.000000	0.916641
5102.000000	0.916613
5100.000000	0.916619
5098.000000	0.916703
5096.000000	0.916815
5094.000000	0.916976
5092.000000	0.917236
5090.000000	0.917449
5088.000000	0.917419
5086.000000	0.917411
5084.000000	0.917512
5082.000000	0.917661
5080.000000	0.917738
5078.000000	0.917776
5076.000000	0.917811
5074.000000	0.917816
5072.000000	0.917971
5070.000000	0.918137
5068.000000	0.918207
5066.000000	0.918231
5064.000000	0.918295
5062.000000	0.918276
5060.000000	0.918260
5058.000000	0.918382
5056.000000	0.918604
5054.000000	0.918707
5052.000000	0.918676
5050.000000	0.918680
5048.000000	0.918784
5046.000000	0.918959
5044.000000	0.919027
5042.000000	0.918988
5040.000000	0.919033
5038.000000	0.919139
5036.000000	0.919203
5034.000000	0.919200
5032.000000	0.919239
5030.000000	0.919374
5028.000000	0.919477
5026.000000	0.919566
5024.000000	0.919609
5022.000000	0.919543
5020.000000	0.919439
5018.000000	0.919436
5016.000000	0.919592
5014.000000	0.919770
5012.000000	0.919814
5010.000000	0.919779
5008.000000	0.919789
5006.000000	0.919858
5004.000000	0.919870
5002.000000	0.919919
5000.000000	0.920032
4998.000000	0.920154
4996.000000	0.920235
4994.000000	0.920244
4992.000000	0.920131
4990.000000	0.920012
4988.000000	0.920057
4986.000000	0.920283
4984.000000	0.920466
4982.000000	0.920410
4980.000000	0.920241
4978.000000	0.920216
4976.000000	0.920255
4974.000000	0.920247
4972.000000	0.920239
4970.000000	0.920283
4968.000000	0.920297
4966.000000	0.920312
4964.000000	0.920346
4962.000000	0.920328
4960.000000	0.920192
4958.000000	0.920061
4956.000000	0.920087
4954.000000	0.920214
4952.000000	0.920322
4950.000000	0.920305
4948.000000	0.920331
4946.000000	0.920459
4944.000000	0.920561
4942.000000	0.920484
4940.000000	0.920358
4938.000000	0.920365
4936.000000	0.920401
4934.000000	0.920514
4932.000000	0.920660
4930.000000	0.920771
4928.000000	0.920663
4926.000000	0.920436
4924.000000	0.920313
4922.000000	0.920328
4920.000000	0.920411
4918.000000	0.920556
4916.000000	0.920650
4914.000000	0.920530
4912.000000	0.920345
4910.000000	0.920305
4908.000000	0.920314
4906.000000	0.920273
4904.000000	0.920322
4902.000000	0.920443
4900.000000	0.920472
4898.000000	0.920426
4896.000000	0.920429
4894.000000	0.920455
4892.000000	0.920348
4890.000000	0.920205
4888.000000	0.920104
4886.000000	0.920070
4884.000000	0.920129
4882.000000	0.920173
4880.000000	0.920151
4878.000000	0.920068
4876.000000	0.919933
4874.000000	0.919780
4872.000000	0.919781
4870.000000	0.919987
4868.000000	0.920079
4866.000000	0.919952
4864.000000	0.919801
4862.000000	0.919799
4860.000000	0.919881
4858.000000	0.919930
4856.000000	0.919874
4854.000000	0.919771
4852.000000	0.919732
4850.000000	0.919721
4848.000000	0.919550
4846.000000	0.919319
4844.000000	0.919238
4842.000000	0.919388
4840.000000	0.919565
4838.000000	0.919607
4836.000000	0.919509
4834.000000	0.919338
4832.000000	0.919169
4830.000000	0.919054
4828.000000	0.919069
4826.000000	0.919103
4824.000000	0.919102
4822.000000	0.919052
4820.000000	0.919085
4818.000000	0.919078
4816.000000	0.918892
4814.000000	0.918722
4812.000000	0.918793
4810.000000	0.918839
4808.000000	0.918634
4806.000000	0.918466
4804.000000	0.918376
4802.000000	0.918286
4800.000000	0.918135
4798.000000	0.918024
4796.000000	0.917901
4794.000000	0.917826
4792.000000	0.917717
4790.000000	0.917613
4788.000000	0.917498
4786.000000	0.917373
4784.000000	0.917241
4782.000000	0.917083
4780.000000	0.916864
4778.000000	0.916692
4776.000000	0.916627
4774.000000	0.916599
4772.000000	0.916480
4770.000000	0.916254
4768.000000	0.916069
4766.000000	0.916020
4764.000000	0.915961
4762.000000	0.915829
4760.000000	0.915705
4758.000000	0.915577
4756.000000	0.915404
4754.000000	0.915358
4752.000000	0.915453
4750.000000	0.915421
4748.000000	0.915139
4746.000000	0.914872
4744.000000	0.914782
4742.000000	0.914744
4740.000000	0.914630
4738.000000	0.914492
4736.000000	0.914353
4734.000000	0.914229
4732.000000	0.914112
4730.000000	0.913986
4728.000000	0.913867
4726.000000	0.913764
4724.000000	0.913623
4722.000000	0.913422
4720.000000	0.913272
4718.000000	0.913135
4716.000000	0.913031
4714.000000	0.912976
4712.000000	0.912902
4710.000000	0.912713
4708.000000	0.912496
4706.000000	0.912388
4704.000000	0.912430
4702.000000	0.912553
4700.000000	0.912546
4698.000000	0.912408
4696.000000	0.912208
4694.000000	0.911995
4692.000000	0.911806
4690.000000	0.911725
4688.000000	0.911676
4686.000000	0.911588
4684.000000	0.911487
4682.000000	0.911384
4680.000000	0.911279
4678.000000	0.911226
4676.000000	0.911198
4674.000000	0.911123
4672.000000	0.910990
4670.000000	0.910891
4668.000000	0.910806
4666.000000	0.910705
4664.000000	0.910676
4662.000000	0.910704
4660.000000	0.910610
4658.000000	0.910482
4656.000000	0.910480
4654.000000	0.910517
4652.000000	0.910418
4650.000000	0.910222
4648.000000	0.910091
4646.000000	0.910234
4644.000000	0.910390
4642.000000	0.910317
4640.000000	0.910176
4638.000000	0.910088
4636.000000	0.909941
4634.000000	0.909865
4632.000000	0.909977
4630.000000	0.910100
4628.000000	0.910064
4626.000000	0.909949
4624.000000	0.909833
4622.000000	0.909713
4620.000000	0.909670
4618.000000	0.909711
4616.000000	0.909601
4614.000000	0.909336
4612.000000	0.909205
4610.000000	0.909326
4608.000000	0.909472
4606.000000	0.909480
4604.000000	0.909424
4602.000000	0.909419
4600.000000	0.909396
4598.000000	0.909312
4596.000000	0.909275
4594.000000	0.909268
4592.000000	0.909116
4590.000000	0.908843
4588.000000	0.908720
4586.000000	0.908772
4584.000000	0.908900
4582.000000	0.908973
4580.000000	0.908897
4578.000000	0.908782
4576.000000	0.908787
4574.000000	0.908856
4572.000000	0.908936
4570.000000	0.908954
4568.000000	0.908859
4566.000000	0.908795
4564.000000	0.908795
4562.000000	0.908728
4560.000000	0.908624
4558.000000	0.908547
4556.000000	0.908553
4554.000000	0.908560
4552.000000	0.908505
4550.000000	0.908447
4548.000000	0.908488
4546.000000	0.908623
4544.000000	0.908682
4542.000000	0.908609
4540.000000	0.908508
4538.000000	0.908461
4536.000000	0.908440
4534.000000	0.908512
4532.000000	0.908561
4530.000000	0.908493
4528.000000	0.908403
4526.000000	0.908380
4524.000000	0.908318
4522.000000	0.908257
4520.000000	0.908272
4518.000000	0.908273
4516.000000	0.908170
4514.000000	0.908126
4512.000000	0.908155
4510.000000	0.908187
4508.000000	0.908198
4506.000000	0.908177
4504.000000	0.908150
4502.000000	0.908180
4500.000000	0.908146
4498.000000	0.908063
4496.000000	0.908120
4494.000000	0.908257
4492.000000	0.908228
4490.000000	0.908062
4488.000000	0.907968
4486.000000	0.908025
4484.000000	0.908080
4482.000000	0.908003
4480.000000	0.907934
4478.000000	0.907895
4476.000000	0.907830
4474.000000	0.907843
4472.000000	0.907973
4470.000000	0.908016
4468.000000	0.907936
4466.000000	0.907890
4464.000000	0.907952
4462.000000	0.907998
4460.000000	0.907933
4458.000000	0.907880
4456.000000	0.907912
4454.000000	0.907980
4452.000000	0.908005
4450.000000	0.907951
4448.000000	0.907825
4446.000000	0.907768
4444.000000	0.907869
4442.000000	0.907964
4440.000000	0.907876
4438.000000	0.907775
4436.000000	0.907791
4434.000000	0.907809
4432.000000	0.907809
4430.000000	0.907869
4428.000000	0.907926
4426.000000	0.907912
4424.000000	0.907861
4422.000000	0.907860
4420.000000	0.907878
4418.000000	0.907786
4416.000000	0.907701
4414.000000	0.907844
4412.000000	0.908006
4410.000000	0.908005
4408.000000	0.907940
4406.000000	0.907897
4404.000000	0.907880
4402.000000	0.907918
4400.000000	0.907934
4398.000000	0.907882
4396.000000	0.907850
4394.000000	0.907935
4392.000000	0.908036
4390.000000	0.908040
4388.000000	0.908058
4386.000000	0.908146
4384.000000	0.908144
4382.000000	0.908042
4380.000000	0.908034
4378.000000	0.908110
4376.000000	0.908137
4374.000000	0.908128
4372.000000	0.908143
4370.000000	0.908255
4368.000000	0.908393
4366.000000	0.908386
4364.000000	0.908256
4362.000000	0.908207
4360.000000	0.908313
4358.000000	0.908440
4356.000000	0.908398
4354.000000	0.908295
4352.000000	0.908322
4350.000000	0.908436
4348.000000	0.908518
4346.000000	0.908479
4344.000000	0.908371
4342.000000	0.908337
4340.000000	0.908418
4338.000000	0.908474
4336.000000	0.908531
4334.000000	0.908644
4332.000000	0.908715
4330.000000	0.908675
4328.000000	0.908680
4326.000000	0.908752
4324.000000	0.908776
4322.000000	0.908726
4320.000000	0.908695
4318.000000	0.908751
4316.000000	0.908818
4314.000000	0.908747
4312.000000	0.908681
4310.000000	0.908844
4308.000000	0.908993
4306.000000	0.908991
4304.000000	0.909016
4302.000000	0.909024
4300.000000	0.908964
4298.000000	0.909016
4296.000000	0.909190
4294.000000	0.909293
4292.000000	0.909225
4290.000000	0.909128
4288.000000	0.909063
4286.000000	0.909048
4284.000000	0.909136
4282.000000	0.909329
4280.000000	0.909482
4278.000000	0.909462
4276.000000	0.909358
4274.000000	0.909383
4272.000000	0.909491
4270.000000	0.909549
4268.000000	0.909536
4266.000000	0.909523
4264.000000	0.909593
4262.000000	0.909674
4260.000000	0.909674
4258.000000	0.909682
4256.000000	0.909740
4254.000000	0.909775
4252.000000	0.909716
4250.000000	0.909669
4248.000000	0.909719
4246.000000	0.909794
4244.000000	0.909854
4242.000000	0.909914
4240.000000	0.909913
4238.000000	0.909817
4236.000000	0.909738
4234.000000	0.909849
4232.000000	0.909999
4230.000000	0.910004
4228.000000	0.909978
4226.000000	0.909972
4224.000000	0.909949
4222.000000	0.909953
4220.000000	0.910009
4218.000000	0.910023
4216.000000	0.909929
4214.000000	0.909841
4212.000000	0.909865
4210.000000	0.909952
4208.000000	0.909998
4206.000000	0.909932
4204.000000	0.909831
4202.000000	0.909822
4200.000000	0.909892
4198.000000	0.909923
4196.000000	0.909859
4194.000000	0.909806
4192.000000	0.909854
4190.000000	0.909897
4188.000000	0.909871
4186.000000	0.909863
4184.000000	0.909884
4182.000000	0.909890
4180.000000	0.909917
4178.000000	0.909904
4176.000000	0.909813
4174.000000	0.909763
4172.000000	0.909766
4170.000000	0.909720
4168.000000	0.909706
4166.000000	0.909745
4164.000000	0.909752
4162.000000	0.909740
4160.000000	0.909710
4158.000000	0.909689
4156.000000	0.909709
4154.000000	0.909691
4152.000000	0.909688
4150.000000	0.909752
4148.000000	0.909726
4146.000000	0.909572
4144.000000	0.909505
4142.000000	0.909589
4140.000000	0.909640
4138.000000	0.909629
4136.000000	0.909689
4134.000000	0.909777
4132.000000	0.909743
4130.000000	0.909661
4128.000000	0.909674
4126.000000	0.909695
4124.000000	0.909597
4122.000000	0.909424
4120.000000	0.909378
4118.000000	0.909454
4116.000000	0.909487
4114.000000	0.909548
4112.000000	0.909672
4110.000000	0.909668
4108.000000	0.909543
4106.000000	0.909422
4104.000000	0.909359
4102.000000	0.909385
4100.000000	0.909416
4098.000000	0.909389
4096.000000	0.909352
4094.000000	0.909313
4092.000000	0.909350
4090.000000	0.909430
4088.000000	0.909416
4086.000000	0.909418
4084.000000	0.909430
4082.000000	0.909388
4080.000000	0.909356
4078.000000	0.909303
4076.000000	0.909239
4074.000000	0.909217
4072.000000	0.909253
4070.000000	0.909315
4068.000000	0.909315
4066.000000	0.909276
4064.000000	0.909252
4062.000000	0.909287
4060.000000	0.909295
4058.000000	0.909193
4056.000000	0.909102
4054.000000	0.909042
4052.000000	0.909031
4050.000000	0.909074
4048.000000	0.909048
4046.000000	0.909085
4044.000000	0.909184
4042.000000	0.909166
4040.000000	0.909136
4038.000000	0.909146
4036.000000	0.909108
4034.000000	0.909032
4032.000000	0.908928
4030.000000	0.908863
4028.000000	0.908874
4026.000000	0.908890
4024.000000	0.908847
4022.000000	0.908760
4020.000000	0.908752
4018.000000	0.908778
4016.000000	0.908754
4014.000000	0.908772
4012.000000	0.908851
4010.000000	0.908894
4008.000000	0.908859
4006.000000	0.908780
4004.000000	0.908718
4002.000000	0.908663
4000.000000	0.908579
3998.000000	0.908514
3996.000000	0.908483
3994.000000	0.908466
3992.000000	0.908461
3990.000000	0.908392
3988.000000	0.908328
3986.000000	0.908376
3984.000000	0.908416
3982.000000	0.908329
3980.000000	0.908258
3978.000000	0.908306
3976.000000	0.908347
3974.000000	0.908332
3972.000000	0.908212
3970.000000	0.908069
3968.000000	0.908100
3966.000000	0.908116
3964.000000	0.907953
3962.000000	0.907814
3960.000000	0.907774
3958.000000	0.907742
3956.000000	0.907700
3954.000000	0.907648
3952.000000	0.907611
3950.000000	0.907534
3948.000000	0.907424
3946.000000	0.907381
3944.000000	0.907356
3942.000000	0.907339
3940.000000	0.907328
3938.000000	0.907281
3936.000000	0.907211
3934.000000	0.907076
3932.000000	0.906940
3930.000000	0.906880
3928.000000	0.906794
3926.000000	0.906678
3924.000000	0.906660
3922.000000	0.906700
3920.000000	0.906657
3918.000000	0.906527
3916.000000	0.906452
3914.000000	0.906456
3912.000000	0.906382
3910.000000	0.906270
3908.000000	0.906204
3906.000000	0.906047
3904.000000	0.905793
3902.000000	0.905589
3900.000000	0.905476
3898.000000	0.905463
3896.000000	0.905498
3894.000000	0.905457
3892.000000	0.905270
3890.000000	0.905132
3888.000000	0.905150
3886.000000	0.905027
3884.000000	0.904873
3882.000000	0.904816
3880.000000	0.904668
3878.000000	0.904616
3876.000000	0.904630
3874.000000	0.904565
3872.000000	0.904399
3870.000000	0.904080
3868.000000	0.903963
3866.000000	0.904039
3864.000000	0.903966
3862.000000	0.903866
3860.000000	0.903844
3858.000000	0.903873
3856.000000	0.903616
3854.000000	0.902816
3852.000000	0.902321
3850.000000	0.902722
3848.000000	0.903303
3846.000000	0.903438
3844.000000	0.903279
3842.000000	0.903146
3840.000000	0.902919
3838.000000	0.902462
3836.000000	0.902241
3834.000000	0.902394
3832.000000	0.902477
3830.000000	0.902503
3828.000000	0.902561
3826.000000	0.902521
3824.000000	0.902391
3822.000000	0.902041
3820.000000	0.901736
3818.000000	0.901664
3816.000000	0.901458
3814.000000	0.901377
3812.000000	0.901599
3810.000000	0.901631
3808.000000	0.901324
3806.000000	0.901092
3804.000000	0.901037
3802.000000	0.900709
3800.000000	0.900424
3798.000000	0.900614
3796.000000	0.900792
3794.000000	0.900829
3792.000000	0.900851
3790.000000	0.900740
3788.000000	0.900590
3786.000000	0.900460
3784.000000	0.900320
3782.000000	0.900254
3780.000000	0.900149
3778.000000	0.899974
3776.000000	0.899950
3774.000000	0.899985
3772.000000	0.899861
3770.000000	0.899616
3768.000000	0.899464
3766.000000	0.899369
3764.000000	0.899264
3762.000000	0.899278
3760.000000	0.899270
3758.000000	0.899160
3756.000000	0.899114
3754.000000	0.898913
3752.000000	0.898413
3750.000000	0.898053
3748.000000	0.898131
3746.000000	0.898135
3744.000000	0.897828
3742.000000	0.898027
3740.000000	0.898561
3738.000000	0.898583
3736.000000	0.898275
3734.000000	0.898143
3732.000000	0.898237
3730.000000	0.898480
3728.000000	0.898728
3726.000000	0.898853
3724.000000	0.898966
3722.000000	0.899040
3720.000000	0.899068
3718.000000	0.899110
3716.000000	0.899185
3714.000000	0.899184
3712.000000	0.899020
3710.000000	0.898988
3708.000000	0.899311
3706.000000	0.899749
3704.000000	0.899996
3702.000000	0.900079
3700.000000	0.900266
3698.000000	0.900530
3696.000000	0.900728
3694.000000	0.900958
3692.000000	0.901105
3690.000000	0.900977
3688.000000	0.900869
3686.000000	0.901299
3684.000000	0.901971
3682.000000	0.902399
3680.000000	0.902699
3678.000000	0.902908
3676.000000	0.902918
3674.000000	0.903145
3672.000000	0.903655
3670.000000	0.903964
3668.000000	0.904430
3666.000000	0.905217
3664.000000	0.905909
3662.000000	0.906438
3660.000000	0.906888
3658.000000	0.907296
3656.000000	0.907660
3654.000000	0.908092
3652.000000	0.908558
3650.000000	0.908790
3648.000000	0.909095
3646.000000	0.909849
3644.000000	0.910691
3642.000000	0.911364
3640.000000	0.911972
3638.000000	0.912528
3636.000000	0.913070
3634.000000	0.913636
3632.000000	0.914136
3630.000000	0.914401
3628.000000	0.914711
3626.000000	0.915550
3624.000000	0.916581
3622.000000	0.917321
3620.000000	0.917784
3618.000000	0.918239
3616.000000	0.918964
3614.000000	0.919820
3612.000000	0.920534
3610.000000	0.921145
3608.000000	0.921805
3606.000000	0.922604
3604.000000	0.923480
3602.000000	0.924244
3600.000000	0.924885
3598.000000	0.925589
3596.000000	0.926362
3594.000000	0.927115
3592.000000	0.927802
3590.000000	0.928393
3588.000000	0.928881
3586.000000	0.929400
3584.000000	0.930102
3582.000000	0.930825
3580.000000	0.931498
3578.000000	0.932178
3576.000000	0.932793
3574.000000	0.933335
3572.000000	0.933939
3570.000000	0.934465
3568.000000	0.934719
3566.000000	0.935003
3564.000000	0.935506
3562.000000	0.936005
3560.000000	0.936468
3558.000000	0.936940
3556.000000	0.937399
3554.000000	0.937787
3552.000000	0.938088
3550.000000	0.938453
3548.000000	0.938824
3546.000000	0.939031
3544.000000	0.939225
3542.000000	0.939560
3540.000000	0.939871
3538.000000	0.940069
3536.000000	0.940254
3534.000000	0.940439
3532.000000	0.940658
3530.000000	0.940838
3528.000000	0.941011
3526.000000	0.941234
3524.000000	0.941380
3522.000000	0.941469
3520.000000	0.941618
3518.000000	0.941856
3516.000000	0.942090
3514.000000	0.942242
3512.000000	0.942318
3510.000000	0.942406
3508.000000	0.942606
3506.000000	0.942866
3504.000000	0.943113
3502.000000	0.943373
3500.000000	0.943630
3498.000000	0.943812
3496.000000	0.943971
3494.000000	0.944213
3492.000000	0.944489
3490.000000	0.944743
3488.000000	0.945013
3486.000000	0.945309
3484.000000	0.945596
3482.000000	0.945830
3480.000000	0.946096
3478.000000	0.946412
3476.000000	0.946713
3474.000000	0.946990
3472.000000	0.947282
3470.000000	0.947613
3468.000000	0.947927
3466.000000	0.948240
3464.000000	0.948610
3462.000000	0.948993
3460.000000	0.949313
3458.000000	0.949552
3456.000000	0.949820
3454.000000	0.950182
3452.000000	0.950520
3450.000000	0.950858
3448.000000	0.951252
3446.000000	0.951595
3444.000000	0.951880
3442.000000	0.952036
3440.000000	0.952215
3438.000000	0.952482
3436.000000	0.952710
3434.000000	0.952969
3432.000000	0.953282
3430.000000	0.953557
3428.000000	0.953714
3426.000000	0.953846
3424.000000	0.954084
3422.000000	0.954358
3420.000000	0.954627
3418.000000	0.954778
3416.000000	0.954856
3414.000000	0.955046
3412.000000	0.955268
3410.000000	0.955386
3408.000000	0.955455
3406.000000	0.955564
3404.000000	0.955657
3402.000000	0.955730
3400.000000	0.955871
3398.000000	0.956008
3396.000000	0.956075
3394.000000	0.956197
3392.000000	0.956311
3390.000000	0.956331
3388.000000	0.956348
3386.000000	0.956388
3384.000000	0.956488
3382.000000	0.956592
3380.000000	0.956689
3378.000000	0.956909
3376.000000	0.957002
3374.000000	0.956929
3372.000000	0.956955
3370.000000	0.957027
3368.000000	0.957060
3366.000000	0.957078
3364.000000	0.957116
3362.000000	0.957199
3360.000000	0.957236
3358.000000	0.957257
3356.000000	0.957318
3354.000000	0.957364
3352.000000	0.957406
3350.000000	0.957470
3348.000000	0.957480
3346.000000	0.957430
3344.000000	0.957397
3342.000000	0.957417
3340.000000	0.957525
3338.000000	0.957607
3336.000000	0.957618
3334.000000	0.957631
3332.000000	0.957633
3330.000000	0.957600
3328.000000	0.957563
3326.000000	0.957594
3324.000000	0.957687
3322.000000	0.957764
3320.000000	0.957822
3318.000000	0.957953
3316.000000	0.958036
3314.000000	0.958034
3312.000000	0.958136
3310.000000	0.958242
3308.000000	0.958221
3306.000000	0.958167
3304.000000	0.958220
3302.000000	0.958369
3300.000000	0.958489
3298.000000	0.958536
3296.000000	0.958525
3294.000000	0.958529
3292.000000	0.958575
3290.000000	0.958570
3288.000000	0.958567
3286.000000	0.958601
3284.000000	0.958698
3282.000000	0.958852
3280.000000	0.958931
3278.000000	0.958901
3276.000000	0.958868
3274.000000	0.958901
3272.000000	0.958937
3270.000000	0.958966
3268.000000	0.959032
3266.000000	0.959163
3264.000000	0.959312
3262.000000	0.959389
3260.000000	0.959446
3258.000000	0.959478
3256.000000	0.959513
3254.000000	0.959546
3252.000000	0.959560
3250.000000	0.959636
3248.000000	0.959736
3246.000000	0.959781
3244.000000	0.959788
3242.000000	0.959884
3240.000000	0.960040
3238.000000	0.960096
3236.000000	0.960088
3234.000000	0.960082
3232.000000	0.960037
3230.000000	0.960017
3228.000000	0.960155
3226.000000	0.960350
3224.000000	0.960428
3222.000000	0.960431
3220.000000	0.960475
3218.000000	0.960499
3216.000000	0.960519
3214.000000	0.960566
3212.000000	0.960590
3210.000000	0.960635
3208.000000	0.960686
3206.000000	0.960664
3204.000000	0.960666
3202.000000	0.960669
3200.000000	0.960663
3198.000000	0.960771
3196.000000	0.960846
3194.000000	0.960809
3192.000000	0.960816
3190.000000	0.960906
3188.000000	0.960986
3186.000000	0.960925
3184.000000	0.960816
3182.000000	0.960836
3180.000000	0.960912
3178.000000	0.960980
3176.000000	0.960996
3174.000000	0.960972
3172.000000	0.961057
3170.000000	0.961129
3168.000000	0.961056
3166.000000	0.961025
3164.000000	0.961103
3162.000000	0.961178
3160.000000	0.961222
3158.000000	0.961213
3156.000000	0.961197
3154.000000	0.961227
3152.000000	0.961306
3150.000000	0.961382
3148.000000	0.961382
3146.000000	0.961338
3144.000000	0.961316
3142.000000	0.961364
3140.000000	0.961345
3138.000000	0.961293
3136.000000	0.961400
3134.000000	0.961485
3132.000000	0.961520
3130.000000	0.961548
3128.000000	0.961557
3126.000000	0.961610
3124.000000	0.961659
3122.000000	0.961647
3120.000000	0.961622
3118.000000	0.961656
3116.000000	0.961746
3114.000000	0.961834
3112.000000	0.961788
3110.000000	0.961749
3108.000000	0.961827
3106.000000	0.961866
3104.000000	0.961885
3102.000000	0.961962
3100.000000	0.961997
3098.000000	0.961984
3096.000000	0.962013
3094.000000	0.962083
3092.000000	0.962117
3090.000000	0.962114
3088.000000	0.962128
3086.000000	0.962194
3084.000000	0.962234
3082.000000	0.962247
3080.000000	0.962239
3078.000000	0.962240
3076.000000	0.962371
3074.000000	0.962417
3072.000000	0.962377
3070.000000	0.962369
3068.000000	0.962356
3066.000000	0.962397
3064.000000	0.962454
3062.000000	0.962451
3060.000000	0.962412
3058.000000	0.962407
3056.000000	0.962466
3054.000000	0.962515
3052.000000	0.962527
3050.000000	0.962540
3048.000000	0.962523
3046.000000	0.962512
3044.000000	0.962577
3042.000000	0.962641
3040.000000	0.962646
3038.000000	0.962584
3036.000000	0.962516
3034.000000	0.962517
3032.000000	0.962600
3030.000000	0.962674
3028.000000	0.962670
3026.000000	0.962663
3024.000000	0.962651
3022.000000	0.962652
3020.000000	0.962624
3018.000000	0.962550
3016.000000	0.962384
3014.000000	0.962273
3012.000000	0.962287
3010.000000	0.962308
3008.000000	0.962348
3006.000000	0.962404
3004.000000	0.962447
3002.000000	0.962480
3000.000000	0.962499
2998.000000	0.962521
2996.000000	0.962557
2994.000000	0.962528
2992.000000	0.962480
2990.000000	0.962450
2988.000000	0.962399
2986.000000	0.962378
2984.000000	0.962356
2982.000000	0.962330
2980.000000	0.962385
2978.000000	0.962514
2976.000000	0.962608
2974.000000	0.962721
2972.000000	0.962965
2970.000000	0.963159
2968.000000	0.963274
2966.000000	0.963313
2964.000000	0.963273
2962.000000	0.963110
2960.000000	0.962791
2958.000000	0.962413
2956.000000	0.962108
2954.000000	0.961884
2952.000000	0.961731
2950.000000	0.961570
2948.000000	0.961442
2946.000000	0.961352
2944.000000	0.961338
2942.000000	0.961337
2940.000000	0.961238
2938.000000	0.961117
2936.000000	0.960986
2934.000000	0.960879
2932.000000	0.960839
2930.000000	0.960749
2928.000000	0.960523
2926.000000	0.960248
2924.000000	0.959927
2922.000000	0.959608
2920.000000	0.959309
2918.000000	0.959110
2916.000000	0.959050
2914.000000	0.959089
2912.000000	0.959145
2910.000000	0.959141
2908.000000	0.959139
2906.000000	0.959096
2904.000000	0.959011
2902.000000	0.958901
2900.000000	0.958701
2898.000000	0.958545
2896.000000	0.958465
2894.000000	0.958342
2892.000000	0.958145
2890.000000	0.958022
2888.000000	0.957970
2886.000000	0.957873
2884.000000	0.957733
2882.000000	0.957605
2880.000000	0.957567
2878.000000	0.957513
2876.000000	0.957361
2874.000000	0.957267
2872.000000	0.957217
2870.000000	0.957160
2868.000000	0.957137
2866.000000	0.957108
2864.000000	0.956911
2862.000000	0.956582
2860.000000	0.956279
2858.000000	0.956036
2856.000000	0.955936
2854.000000	0.955798
2852.000000	0.955612
2850.000000	0.955457
2848.000000	0.955337
2846.000000	0.955274
2844.000000	0.955210
2842.000000	0.955146
2840.000000	0.955141
2838.000000	0.955122
2836.000000	0.955077
2834.000000	0.955027
2832.000000	0.954943
2830.000000	0.954829
2828.000000	0.954799
2826.000000	0.954825
2824.000000	0.954708
2822.000000	0.954549
2820.000000	0.954450
2818.000000	0.954331
2816.000000	0.954263
2814.000000	0.954251
2812.000000	0.954185
2810.000000	0.954117
2808.000000	0.954054
2806.000000	0.953997
2804.000000	0.954012
2802.000000	0.953993
2800.000000	0.953910
2798.000000	0.953864
2796.000000	0.953800
2794.000000	0.953699
2792.000000	0.953623
2790.000000	0.953645
2788.000000	0.953690
2786.000000	0.953688
2784.000000	0.953621
2782.000000	0.953535
2780.000000	0.953471
2778.000000	0.953451
2776.000000	0.953439
2774.000000	0.953394
2772.000000	0.953380
2770.000000	0.953398
2768.000000	0.953394
2766.000000	0.953382
2764.000000	0.953355
2762.000000	0.953321
2760.000000	0.953304
2758.000000	0.953268
2756.000000	0.953227
2754.000000	0.953209
2752.000000	0.953167
2750.000000	0.953167
2748.000000	0.953221
2746.000000	0.953259
2744.000000	0.953290
2742.000000	0.953339
2740.000000	0.953395
2738.000000	0.953397
2736.000000	0.953376
2734.000000	0.953406
2732.000000	0.953457
2730.000000	0.953478
2728.000000	0.953472
2726.000000	0.953485
2724.000000	0.953513
2722.000000	0.953506
2720.000000	0.953548
2718.000000	0.953638
2716.000000	0.953718
2714.000000	0.953737
2712.000000	0.953791
2710.000000	0.953859
2708.000000	0.953880
2706.000000	0.953903
2704.000000	0.953927
2702.000000	0.953962
2700.000000	0.953996
2698.000000	0.954081
2696.000000	0.954207
2694.000000	0.954265
2692.000000	0.954337
2690.000000	0.954471
2688.000000	0.954586
2686.000000	0.954638
2684.000000	0.954670
2682.000000	0.954774
2680.000000	0.954864
2678.000000	0.954889
2676.000000	0.954980
2674.000000	0.955133
2672.000000	0.955198
2670.000000	0.955248
2668.000000	0.955336
2666.000000	0.955399
2664.000000	0.955455
2662.000000	0.955567
2660.000000	0.955707
2658.000000	0.955847
2656.000000	0.955981
2654.000000	0.956090
2652.000000	0.956200
2650.000000	0.956309
2648.000000	0.956353
2646.000000	0.956380
2644.000000	0.956492
2642.000000	0.956654
2640.000000	0.956802
2638.000000	0.956899
2636.000000	0.956907
2634.000000	0.956981
2632.000000	0.957106
2630.000000	0.957176
2628.000000	0.957301
2626.000000	0.957435
2624.000000	0.957532
2622.000000	0.957653
2620.000000	0.957758
2618.000000	0.957803
2616.000000	0.957840
2614.000000	0.957890
2612.000000	0.958027
2610.000000	0.958182
2608.000000	0.958239
2606.000000	0.958287
2604.000000	0.958431
2602.000000	0.958497
2600.000000	0.958519
2598.000000	0.958633
2596.000000	0.958771
2594.000000	0.958882
2592.000000	0.958939
2590.000000	0.958995
2588.000000	0.959123
2586.000000	0.959257
2584.000000	0.959383
2582.000000	0.959407
2580.000000	0.959392
2578.000000	0.959486
2576.000000	0.959636
2574.000000	0.959737
2572.000000	0.959808
2570.000000	0.959858
2568.000000	0.959891
2566.000000	0.959975
2564.000000	0.960059
2562.000000	0.960106
2560.000000	0.960207
2558.000000	0.960329
2556.000000	0.960409
2554.000000	0.960450
2552.000000	0.960509
2550.000000	0.960597
2548.000000	0.960707
2546.000000	0.960825
2544.000000	0.960880
2542.000000	0.960976
2540.000000	0.961081
2538.000000	0.961117
2536.000000	0.961198
2534.000000	0.961298
2532.000000	0.961306
2530.000000	0.961345
2528.000000	0.961512
2526.000000	0.961642
2524.000000	0.961665
2522.000000	0.961747
2520.000000	0.961891
2518.000000	0.961928
2516.000000	0.961956
2514.000000	0.962036
2512.000000	0.962084
2510.000000	0.962132
2508.000000	0.962244
2506.000000	0.962348
2504.000000	0.962433
2502.000000	0.962508
2500.000000	0.962553
2498.000000	0.962658
2496.000000	0.962751
2494.000000	0.962842
2492.000000	0.962956
2490.000000	0.962988
2488.000000	0.962990
2486.000000	0.963132
2484.000000	0.963241
2482.000000	0.963226
2480.000000	0.963289
2478.000000	0.963444
2476.000000	0.963543
2474.000000	0.963610
2472.000000	0.963675
2470.000000	0.963725
2468.000000	0.963886
2466.000000	0.964024
2464.000000	0.964103
2462.000000	0.964223
2460.000000	0.964311
2458.000000	0.964403
2456.000000	0.964500
2454.000000	0.964629
2452.000000	0.964753
2450.000000	0.964868
2448.000000	0.964967
2446.000000	0.965106
2444.000000	0.965282
2442.000000	0.965395
2440.000000	0.965506
2438.000000	0.965658
2436.000000	0.965816
2434.000000	0.965994
2432.000000	0.966259
2430.000000	0.966579
2428.000000	0.966883
2426.000000	0.967144
2424.000000	0.967395
2422.000000	0.967591
2420.000000	0.967749
2418.000000	0.967869
2416.000000	0.967886
2414.000000	0.967871
2412.000000	0.967827
2410.000000	0.967641
2408.000000	0.967468
2406.000000	0.967313
2404.000000	0.967054
2402.000000	0.966872
2400.000000	0.966800
2398.000000	0.966698
2396.000000	0.966600
2394.000000	0.966562
2392.000000	0.966494
2390.000000	0.966436
2388.000000	0.966430
2386.000000	0.966471
2384.000000	0.966510
2382.000000	0.966493
2380.000000	0.966481
2378.000000	0.966484
2376.000000	0.966387
2374.000000	0.966299
2372.000000	0.966306
2370.000000	0.966337
2368.000000	0.966351
2366.000000	0.966331
2364.000000	0.966307
2362.000000	0.966302
2360.000000	0.966325
2358.000000	0.966398
2356.000000	0.966495
2354.000000	0.966602
2352.000000	0.966717
2350.000000	0.966898
2348.000000	0.967093
2346.000000	0.967185
2344.000000	0.967347
2342.000000	0.967564
2340.000000	0.967605
2338.000000	0.967473
2336.000000	0.967371
2334.000000	0.967310
2332.000000	0.967310
2330.000000	0.967401
2328.000000	0.967471
2326.000000	0.967573
2324.000000	0.967676
2322.000000	0.967724
2320.000000	0.967884
2318.000000	0.968040
2316.000000	0.968117
2314.000000	0.968220
2312.000000	0.968280
2310.000000	0.968328
2308.000000	0.968423
2306.000000	0.968476
2304.000000	0.968569
2302.000000	0.968634
2300.000000	0.968667
2298.000000	0.968732
2296.000000	0.968772
2294.000000	0.968843
2292.000000	0.968957
2290.000000	0.968980
2288.000000	0.969013
2286.000000	0.969092
2284.000000	0.969114
2282.000000	0.969115
2280.000000	0.969192
2278.000000	0.969274
2276.000000	0.969351
2274.000000	0.969451
2272.000000	0.969471
2270.000000	0.969441
2268.000000	0.969451
2266.000000	0.969498
2264.000000	0.969569
2262.000000	0.969666
2260.000000	0.969715
2258.000000	0.969712
2256.000000	0.969781
2254.000000	0.969875
2252.000000	0.969864
2250.000000	0.969844
2248.000000	0.969857
2246.000000	0.969876
2244.000000	0.969913
2242.000000	0.969951
2240.000000	0.969927
2238.000000	0.969959
2236.000000	0.969995
2234.000000	0.969972
2232.000000	0.970023
2230.000000	0.970077
2228.000000	0.970152
2226.000000	0.970165
2224.000000	0.970062
2222.000000	0.970042
2220.000000	0.970097
2218.000000	0.970173
2216.000000	0.970188
2214.000000	0.970162
2212.000000	0.970162
2210.000000	0.970153
2208.000000	0.970114
2206.000000	0.970062
2204.000000	0.970056
2202.000000	0.970116
2200.000000	0.970144
2198.000000	0.970129
2196.000000	0.970112
2194.000000	0.970092
2192.000000	0.970058
2190.000000	0.970063
2188.000000	0.970039
2186.000000	0.969957
2184.000000	0.969916
2182.000000	0.969923
2180.000000	0.969912
2178.000000	0.969846
2176.000000	0.969812
2174.000000	0.969774
2172.000000	0.969742
2170.000000	0.969697
2168.000000	0.969599
2166.000000	0.969500
2164.000000	0.969481
2162.000000	0.969536
2160.000000	0.969500
2158.000000	0.969381
2156.000000	0.969291
2154.000000	0.969216
2152.000000	0.969151
2150.000000	0.969086
2148.000000	0.969028
2146.000000	0.969014
2144.000000	0.968916
2142.000000	0.968834
2140.000000	0.968837
2138.000000	0.968738
2136.000000	0.968580
2134.000000	0.968479
2132.000000	0.968392
2130.000000	0.968344
2128.000000	0.968298
2126.000000	0.968176
2124.000000	0.968057
2122.000000	0.968027
2120.000000	0.967949
2118.000000	0.967838
2116.000000	0.967784
2114.000000	0.967644
2112.000000	0.967531
2110.000000	0.967501
2108.000000	0.967428
2106.000000	0.967274
2104.000000	0.967163
2102.000000	0.967041
2100.000000	0.966938
2098.000000	0.966822
2096.000000	0.966725
2094.000000	0.966611
2092.000000	0.966520
2090.000000	0.966463
2088.000000	0.966367
2086.000000	0.966217
2084.000000	0.966103
2082.000000	0.966050
2080.000000	0.965929
2078.000000	0.965764
2076.000000	0.965621
2074.000000	0.965514
2072.000000	0.965389
2070.000000	0.965245
2068.000000	0.965123
2066.000000	0.965018
2064.000000	0.964903
2062.000000	0.964806
2060.000000	0.964690
2058.000000	0.964542
2056.000000	0.964424
2054.000000	0.964345
2052.000000	0.964296
2050.000000	0.964185
2048.000000	0.964011
2046.000000	0.963857
2044.000000	0.963770
2042.000000	0.963671
2040.000000	0.963553
2038.000000	0.963427
2036.000000	0.963290
2034.000000	0.963151
2032.000000	0.963030
2030.000000	0.962967
2028.000000	0.962870
2026.000000	0.962748
2024.000000	0.962676
2022.000000	0.962628
2020.000000	0.962508
2018.000000	0.962344
2016.000000	0.962226
2014.000000	0.962160
2012.000000	0.962082
2010.000000	0.961985
2008.000000	0.961902
2006.000000	0.961838
2004.000000	0.961769
2002.000000	0.961675
2000.000000	0.961610
1998.000000	0.961569
1996.000000	0.961521
1994.000000	0.961485
1992.000000	0.961401
1990.000000	0.961297
1988.000000	0.961263
1986.000000	0.961226
1984.000000	0.961171
1982.000000	0.961163
1980.000000	0.961140
1978.000000	0.961102
1976.000000	0.961125
1974.000000	0.961136
1972.000000	0.961117
1970.000000	0.961120
1968.000000	0.961122
1966.000000	0.961169
1964.000000	0.961173
1962.000000	0.961172
1960.000000	0.961169
1958.000000	0.961123
1956.000000	0.961180
1954.000000	0.961284
1952.000000	0.961383
1950.000000	0.961390
1948.000000	0.961360
1946.000000	0.961396
1944.000000	0.961490
1942.000000	0.961574
1940.000000	0.961643
1938.000000	0.961738
1936.000000	0.961831
1934.000000	0.961916
1932.000000	0.962038
1930.000000	0.962095
1928.000000	0.962139
1926.000000	0.962236
1924.000000	0.962290
1922.000000	0.962429
1920.000000	0.962560
1918.000000	0.962554
1916.000000	0.962671
1914.000000	0.962855
1912.000000	0.962996
1910.000000	0.963081
1908.000000	0.963112
1906.000000	0.963253
1904.000000	0.963432
1902.000000	0.963526
1900.000000	0.963648
1898.000000	0.963791
1896.000000	0.963835
1894.000000	0.963806
1892.000000	0.963874
1890.000000	0.963953
1888.000000	0.963980
1886.000000	0.964092
1884.000000	0.964257
1882.000000	0.964351
1880.000000	0.964386
1878.000000	0.964454
1876.000000	0.964555
1874.000000	0.964622
1872.000000	0.964616
1870.000000	0.964559
1868.000000	0.964535
1866.000000	0.964689
1864.000000	0.964838
1862.000000	0.964927
1860.000000	0.965018
1858.000000	0.965052
1856.000000	0.965107
1854.000000	0.965210
1852.000000	0.965203
1850.000000	0.965208
1848.000000	0.965251
1846.000000	0.965224
1844.000000	0.965125
1842.000000	0.965292
1840.000000	0.965551
1838.000000	0.965626
1836.000000	0.965690
1834.000000	0.965783
1832.000000	0.965843
1830.000000	0.965768
1828.000000	0.965874
1826.000000	0.965929
1824.000000	0.965912
1822.000000	0.966119
1820.000000	0.966262
1818.000000	0.966346
1816.000000	0.966532
1814.000000	0.966651
1812.000000	0.966624
1810.000000	0.966602
1808.000000	0.966714
1806.000000	0.966893
1804.000000	0.967020
1802.000000	0.967034
1800.000000	0.967053
1798.000000	0.967135
1796.000000	0.967208
1794.000000	0.967179
1792.000000	0.967068
1790.000000	0.967257
1788.000000	0.967565
1786.000000	0.967663
1784.000000	0.967742
1782.000000	0.967860
1780.000000	0.967904
1778.000000	0.968031
1776.000000	0.968177
1774.000000	0.968135
1772.000000	0.967942
1770.000000	0.968099
1768.000000	0.968351
1766.000000	0.968642
1764.000000	0.968868
1762.000000	0.968841
1760.000000	0.968933
1758.000000	0.969121
1756.000000	0.969191
1754.000000	0.969329
1752.000000	0.969206
1750.000000	0.969115
1748.000000	0.969413
1746.000000	0.969740
1744.000000	0.969865
1742.000000	0.969875
1740.000000	0.969897
1738.000000	0.970076
1736.000000	0.970051
1734.000000	0.969519
1732.000000	0.969747
1730.000000	0.970382
1728.000000	0.970629
1726.000000	0.970747
1724.000000	0.970833
1722.000000	0.970925
1720.000000	0.970876
1718.000000	0.970370
1716.000000	0.970167
1714.000000	0.970657
1712.000000	0.971095
1710.000000	0.971320
1708.000000	0.971365
1706.000000	0.971320
1704.000000	0.971329
1702.000000	0.971097
1700.000000	0.970495
1698.000000	0.970744
1696.000000	0.970803
1694.000000	0.971024
1692.000000	0.971709
1690.000000	0.971941
1688.000000	0.971999
1686.000000	0.971577
1684.000000	0.970975
1682.000000	0.971439
1680.000000	0.972037
1678.000000	0.972133
1676.000000	0.971992
1674.000000	0.972028
1672.000000	0.972254
1670.000000	0.972151
1668.000000	0.972247
1666.000000	0.972531
1664.000000	0.972543
1662.000000	0.972515
1660.000000	0.972790
1658.000000	0.973033
1656.000000	0.972953
1654.000000	0.971946
1652.000000	0.971321
1650.000000	0.972239
1648.000000	0.972630
1646.000000	0.972392
1644.000000	0.972689
1642.000000	0.973111
1640.000000	0.973135
1638.000000	0.973004
1636.000000	0.972515
1634.000000	0.972454
1632.000000	0.973013
1630.000000	0.973228
1628.000000	0.973099
1626.000000	0.973029
1624.000000	0.972972
1622.000000	0.972953
1620.000000	0.973080
1618.000000	0.972802
1616.000000	0.972548
1614.000000	0.973078
1612.000000	0.973450
1610.000000	0.973388
1608.000000	0.973269
1606.000000	0.973249
1604.000000	0.973281
1602.000000	0.973279
1600.000000	0.973285
1598.000000	0.973346
1596.000000	0.973502
1594.000000	0.973599
1592.000000	0.973665
1590.000000	0.973659
1588.000000	0.973643
1586.000000	0.973658
1584.000000	0.973683
1582.000000	0.973735
1580.000000	0.973780
1578.000000	0.973592
1576.000000	0.973135
1574.000000	0.973419
1572.000000	0.973850
1570.000000	0.973707
1568.000000	0.973798
1566.000000	0.974109
1564.000000	0.974246
1562.000000	0.974042
1560.000000	0.973097
1558.000000	0.972572
1556.000000	0.973265
1554.000000	0.973759
1552.000000	0.974061
1550.000000	0.974308
1548.000000	0.974423
1546.000000	0.974355
1544.000000	0.974144
1542.000000	0.973836
1540.000000	0.973386
1538.000000	0.973622
1536.000000	0.974390
1534.000000	0.974563
1532.000000	0.974603
1530.000000	0.974853
1528.000000	0.974910
1526.000000	0.974792
1524.000000	0.974655
1522.000000	0.974283
1520.000000	0.974202
1518.000000	0.974600
1516.000000	0.974815
1514.000000	0.974998
1512.000000	0.975109
1510.000000	0.975100
1508.000000	0.974604
1506.000000	0.974111
1504.000000	0.974793
1502.000000	0.975800
1500.000000	0.976306
1498.000000	0.976334
1496.000000	0.975762
1494.000000	0.975062
1492.000000	0.974477
1490.000000	0.974152
1488.000000	0.974298
1486.000000	0.974624
1484.000000	0.974905
1482.000000	0.975109
1480.000000	0.975330
1478.000000	0.975354
1476.000000	0.975171
1474.000000	0.974852
1472.000000	0.974632
1470.000000	0.975021
1468.000000	0.975344
1466.000000	0.975176
1464.000000	0.975043
1462.000000	0.975227
1460.000000	0.975306
1458.000000	0.974851
1456.000000	0.974515
1454.000000	0.974977
1452.000000	0.975128
1450.000000	0.974712
1448.000000	0.974395
1446.000000	0.974554
1444.000000	0.974841
1442.000000	0.974925
1440.000000	0.974924
1438.000000	0.974579
1436.000000	0.974197
1434.000000	0.974435
1432.000000	0.974623
1430.000000	0.974534
1428.000000	0.974513
1426.000000	0.974523
1424.000000	0.974397
1422.000000	0.974289
1420.000000	0.973989
1418.000000	0.973829
1416.000000	0.974119
1414.000000	0.974380
1412.000000	0.974502
1410.000000	0.974498
1408.000000	0.974436
1406.000000	0.974185
1404.000000	0.973891
1402.000000	0.973639
1400.000000	0.973373
1398.000000	0.973306
1396.000000	0.973234
1394.000000	0.973034
1392.000000	0.973116
1390.000000	0.973279
1388.000000	0.973202
1386.000000	0.973124
1384.000000	0.973086
1382.000000	0.972936
1380.000000	0.972796
1378.000000	0.972743
1376.000000	0.972687
1374.000000	0.972501
1372.000000	0.972440
1370.000000	0.972408
1368.000000	0.972320
1366.000000	0.972252
1364.000000	0.972151
1362.000000	0.971995
1360.000000	0.971942
1358.000000	0.971935
1356.000000	0.971851
1354.000000	0.971696
1352.000000	0.971547
1350.000000	0.971506
1348.000000	0.971506
1346.000000	0.971457
1344.000000	0.971368
1342.000000	0.971239
1340.000000	0.971056
1338.000000	0.970869
1336.000000	0.970887
1334.000000	0.970927
1332.000000	0.970811
1330.000000	0.970745
1328.000000	0.970762
1326.000000	0.970783
1324.000000	0.970732
1322.000000	0.970563
1320.000000	0.970428
1318.000000	0.970397
1316.000000	0.970313
1314.000000	0.970215
1312.000000	0.970236
1310.000000	0.970150
1308.000000	0.969979
1306.000000	0.969904
1304.000000	0.969896
1302.000000	0.969819
1300.000000	0.969710
1298.000000	0.969684
1296.000000	0.969617
1294.000000	0.969625
1292.000000	0.969707
1290.000000	0.969697
1288.000000	0.969613
1286.000000	0.969474
1284.000000	0.969359
1282.000000	0.969386
1280.000000	0.969486
1278.000000	0.969646
1276.000000	0.969687
1274.000000	0.969689
1272.000000	0.969851
1270.000000	0.970306
1268.000000	0.971197
1266.000000	0.972182
1264.000000	0.973136
1262.000000	0.973805
1260.000000	0.973693
1258.000000	0.973018
1256.000000	0.972187
1254.000000	0.971318
1252.000000	0.970709
1250.000000	0.970372
1248.000000	0.970255
1246.000000	0.970116
1244.000000	0.969927
1242.000000	0.969878
1240.000000	0.969914
1238.000000	0.969973
1236.000000	0.969915
1234.000000	0.969762
1232.000000	0.969779
1230.000000	0.969900
1228.000000	0.969926
1226.000000	0.970007
1224.000000	0.970079
1222.000000	0.970071
1220.000000	0.969931
1218.000000	0.969786
1216.000000	0.969884
1214.000000	0.970080
1212.000000	0.970094
1210.000000	0.969993
1208.000000	0.969896
1206.000000	0.970003
1204.000000	0.970303
1202.000000	0.970490
1200.000000	0.970434
1198.000000	0.970242
1196.000000	0.970355
1194.000000	0.970679
1192.000000	0.970673
1190.000000	0.970651
1188.000000	0.970866
1186.000000	0.971016
1184.000000	0.971341
1182.000000	0.971720
1180.000000	0.971783
1178.000000	0.971838
1176.000000	0.971900
1174.000000	0.972084
1172.000000	0.972302
1170.000000	0.972419
1168.000000	0.972632
1166.000000	0.972927
1164.000000	0.973162
1162.000000	0.973092
1160.000000	0.973163
1158.000000	0.973392
1156.000000	0.973668
1154.000000	0.973830
1152.000000	0.973969
1150.000000	0.973993
1148.000000	0.973828
1146.000000	0.973550
1144.000000	0.973493
1142.000000	0.973819
1140.000000	0.974170
1138.000000	0.974073
1136.000000	0.973801
1134.000000	0.973632
1132.000000	0.973761
1130.000000	0.974018
1128.000000	0.974235
1126.000000	0.974158
1124.000000	0.973998
1122.000000	0.974024
1120.000000	0.974158
1118.000000	0.974471
1116.000000	0.974391
1114.000000	0.974140
1112.000000	0.974138
1110.000000	0.974355
1108.000000	0.974405
1106.000000	0.974290
1104.000000	0.974237
1102.000000	0.974186
1100.000000	0.974183
1098.000000	0.973946
1096.000000	0.973664
1094.000000	0.973213
1092.000000	0.972403
1090.000000	0.971493
1088.000000	0.970711
1086.000000	0.969797
1084.000000	0.968239
1082.000000	0.966713
1080.000000	0.965665
1078.000000	0.964704
1076.000000	0.963502
1074.000000	0.962074
1072.000000	0.961299
1070.000000	0.960829
1068.000000	0.959727
1066.000000	0.959497
1064.000000	0.959617
1062.000000	0.959167
1060.000000	0.958648
1058.000000	0.958071
1056.000000	0.957543
1054.000000	0.957162
1052.000000	0.956694
1050.000000	0.955848
1048.000000	0.954970
1046.000000	0.955046
1044.000000	0.955122
1042.000000	0.954668
1040.000000	0.954579
1038.000000	0.954777
1036.000000	0.954383
1034.000000	0.953889
1032.000000	0.953964
1030.000000	0.954511
1028.000000	0.954836
1026.000000	0.954358
1024.000000	0.954777
1022.000000	0.955559
1020.000000	0.955510
1018.000000	0.955617
1016.000000	0.956112
1014.000000	0.956441
1012.000000	0.955649
1010.000000	0.954717
1008.000000	0.954020
1006.000000	0.954253
1004.000000	0.954546
1002.000000	0.954497
1000.000000	0.954241
