PE IR       SUBTECH     SPECTRUM    ASCII       PEDS        4.00        
   -1
TE109A_068_80K_after_130K.ASC
20/04/21
19:23:25.00
20/04/21
19:23:51.00
Administrator
TE109A, Tuesday, April 21 2020, 068.
1000.000000
#HDR
-1
-1
#GR
cm-1
A
1.0
0.0
6000.000000
-2.000000
2501
8
0.985250
0.908281
#DATA
6000.000000	0.914317
5998.000000	0.914586
5996.000000	0.915060
5994.000000	0.915279
5992.000000	0.915133
5990.000000	0.914605
5988.000000	0.914306
5986.000000	0.914314
5984.000000	0.914314
5982.000000	0.914129
5980.000000	0.913982
5978.000000	0.914134
5976.000000	0.914373
5974.000000	0.914525
5972.000000	0.914535
5970.000000	0.914530
5968.000000	0.914635
5966.000000	0.914493
5964.000000	0.914490
5962.000000	0.914679
5960.000000	0.914842
5958.000000	0.914967
5956.000000	0.914805
5954.000000	0.914776
5952.000000	0.914589
5950.000000	0.914279
5948.000000	0.914210
5946.000000	0.914466
5944.000000	0.914704
5942.000000	0.914673
5940.000000	0.914380
5938.000000	0.914390
5936.000000	0.914717
5934.000000	0.914800
5932.000000	0.914777
5930.000000	0.914669
5928.000000	0.914779
5926.000000	0.915011
5924.000000	0.915063
5922.000000	0.915131
5920.000000	0.914957
5918.000000	0.914606
5916.000000	0.914491
5914.000000	0.914512
5912.000000	0.914514
5910.000000	0.914635
5908.000000	0.914822
5906.000000	0.915223
5904.000000	0.915398
5902.000000	0.915083
5900.000000	0.914772
5898.000000	0.914448
5896.000000	0.914469
5894.000000	0.914687
5892.000000	0.914851
5890.000000	0.914954
5888.000000	0.915050
5886.000000	0.915058
5884.000000	0.914764
5882.000000	0.914506
5880.000000	0.914652
5878.000000	0.915106
5876.000000	0.915353
5874.000000	0.915414
5872.000000	0.915392
5870.000000	0.915401
5868.000000	0.915157
5866.000000	0.914729
5864.000000	0.914566
5862.000000	0.914374
5860.000000	0.914283
5858.000000	0.914571
5856.000000	0.914780
5854.000000	0.914761
5852.000000	0.914481
5850.000000	0.914530
5848.000000	0.914897
5846.000000	0.915091
5844.000000	0.914991
5842.000000	0.914879
5840.000000	0.914784
5838.000000	0.914773
5836.000000	0.914896
5834.000000	0.915015
5832.000000	0.915147
5830.000000	0.915165
5828.000000	0.915153
5826.000000	0.915190
5824.000000	0.915057
5822.000000	0.914965
5820.000000	0.914781
5818.000000	0.914780
5816.000000	0.915111
5814.000000	0.915308
5812.000000	0.915186
5810.000000	0.914885
5808.000000	0.914948
5806.000000	0.915214
5804.000000	0.915339
5802.000000	0.915518
5800.000000	0.915720
5798.000000	0.915828
5796.000000	0.915460
5794.000000	0.915136
5792.000000	0.915227
5790.000000	0.915572
5788.000000	0.915900
5786.000000	0.916140
5784.000000	0.916112
5782.000000	0.915613
5780.000000	0.915104
5778.000000	0.914979
5776.000000	0.915214
5774.000000	0.915333
5772.000000	0.915363
5770.000000	0.915366
5768.000000	0.915405
5766.000000	0.915488
5764.000000	0.915726
5762.000000	0.916041
5760.000000	0.916069
5758.000000	0.915900
5756.000000	0.915754
5754.000000	0.915750
5752.000000	0.916101
5750.000000	0.916258
5748.000000	0.916149
5746.000000	0.915903
5744.000000	0.915613
5742.000000	0.915542
5740.000000	0.915525
5738.000000	0.915840
5736.000000	0.915917
5734.000000	0.915741
5732.000000	0.915568
5730.000000	0.915520
5728.000000	0.915592
5726.000000	0.915592
5724.000000	0.915663
5722.000000	0.915756
5720.000000	0.915739
5718.000000	0.915780
5716.000000	0.915833
5714.000000	0.915920
5712.000000	0.916154
5710.000000	0.916411
5708.000000	0.916442
5706.000000	0.916345
5704.000000	0.916201
5702.000000	0.916120
5700.000000	0.916104
5698.000000	0.916185
5696.000000	0.916196
5694.000000	0.916172
5692.000000	0.916300
5690.000000	0.916383
5688.000000	0.916374
5686.000000	0.916245
5684.000000	0.916378
5682.000000	0.916746
5680.000000	0.916681
5678.000000	0.916477
5676.000000	0.916259
5674.000000	0.916295
5672.000000	0.916442
5670.000000	0.916402
5668.000000	0.916218
5666.000000	0.916129
5664.000000	0.916312
5662.000000	0.916528
5660.000000	0.916619
5658.000000	0.916333
5656.000000	0.916153
5654.000000	0.916119
5652.000000	0.916112
5650.000000	0.916221
5648.000000	0.916331
5646.000000	0.916365
5644.000000	0.916293
5642.000000	0.916157
5640.000000	0.916134
5638.000000	0.916438
5636.000000	0.916687
5634.000000	0.916863
5632.000000	0.916692
5630.000000	0.916577
5628.000000	0.916626
5626.000000	0.916661
5624.000000	0.916505
5622.000000	0.916605
5620.000000	0.916764
5618.000000	0.916857
5616.000000	0.916975
5614.000000	0.917027
5612.000000	0.917161
5610.000000	0.917115
5608.000000	0.917107
5606.000000	0.917258
5604.000000	0.917215
5602.000000	0.917042
5600.000000	0.917000
5598.000000	0.916956
5596.000000	0.917035
5594.000000	0.916981
5592.000000	0.916954
5590.000000	0.917108
5588.000000	0.917326
5586.000000	0.917483
5584.000000	0.917615
5582.000000	0.917513
5580.000000	0.917176
5578.000000	0.916967
5576.000000	0.917074
5574.000000	0.917407
5572.000000	0.917587
5570.000000	0.917454
5568.000000	0.917335
5566.000000	0.917256
5564.000000	0.917292
5562.000000	0.917351
5560.000000	0.917287
5558.000000	0.917233
5556.000000	0.917171
5554.000000	0.916973
5552.000000	0.916861
5550.000000	0.916938
5548.000000	0.917046
5546.000000	0.917235
5544.000000	0.917375
5542.000000	0.917543
5540.000000	0.917386
5538.000000	0.917115
5536.000000	0.917132
5534.000000	0.917353
5532.000000	0.917458
5530.000000	0.917454
5528.000000	0.917418
5526.000000	0.917359
5524.000000	0.917350
5522.000000	0.917356
5520.000000	0.917256
5518.000000	0.917222
5516.000000	0.917254
5514.000000	0.917382
5512.000000	0.917356
5510.000000	0.917371
5508.000000	0.917513
5506.000000	0.917542
5504.000000	0.917488
5502.000000	0.917502
5500.000000	0.917582
5498.000000	0.917588
5496.000000	0.917563
5494.000000	0.917578
5492.000000	0.917615
5490.000000	0.917694
5488.000000	0.917654
5486.000000	0.917707
5484.000000	0.917706
5482.000000	0.917658
5480.000000	0.917609
5478.000000	0.917545
5476.000000	0.917652
5474.000000	0.917589
5472.000000	0.917555
5470.000000	0.917611
5468.000000	0.917760
5466.000000	0.917862
5464.000000	0.917804
5462.000000	0.917666
5460.000000	0.917463
5458.000000	0.917349
5456.000000	0.917308
5454.000000	0.917371
5452.000000	0.917445
5450.000000	0.917544
5448.000000	0.917714
5446.000000	0.917811
5444.000000	0.917783
5442.000000	0.917651
5440.000000	0.917605
5438.000000	0.917751
5436.000000	0.917814
5434.000000	0.917830
5432.000000	0.917710
5430.000000	0.917551
5428.000000	0.917463
5426.000000	0.917529
5424.000000	0.917715
5422.000000	0.917973
5420.000000	0.918208
5418.000000	0.918387
5416.000000	0.918392
5414.000000	0.918281
5412.000000	0.918127
5410.000000	0.917897
5408.000000	0.917803
5406.000000	0.917813
5404.000000	0.917921
5402.000000	0.918078
5400.000000	0.918157
5398.000000	0.918182
5396.000000	0.918102
5394.000000	0.918023
5392.000000	0.918094
5390.000000	0.918349
5388.000000	0.918576
5386.000000	0.918568
5384.000000	0.918416
5382.000000	0.918293
5380.000000	0.918348
5378.000000	0.918350
5376.000000	0.918285
5374.000000	0.918222
5372.000000	0.918314
5370.000000	0.918310
5368.000000	0.918128
5366.000000	0.917944
5364.000000	0.917973
5362.000000	0.918191
5360.000000	0.918489
5358.000000	0.918467
5356.000000	0.918125
5354.000000	0.917910
5352.000000	0.917959
5350.000000	0.918102
5348.000000	0.918181
5346.000000	0.918295
5344.000000	0.918474
5342.000000	0.918564
5340.000000	0.918546
5338.000000	0.918338
5336.000000	0.918377
5334.000000	0.918600
5332.000000	0.918788
5330.000000	0.918773
5328.000000	0.918614
5326.000000	0.918463
5324.000000	0.918466
5322.000000	0.918639
5320.000000	0.918604
5318.000000	0.918371
5316.000000	0.918321
5314.000000	0.918486
5312.000000	0.918820
5310.000000	0.919059
5308.000000	0.919143
5306.000000	0.919058
5304.000000	0.918923
5302.000000	0.918872
5300.000000	0.918825
5298.000000	0.918809
5296.000000	0.918830
5294.000000	0.918815
5292.000000	0.918890
5290.000000	0.919163
5288.000000	0.919446
5286.000000	0.919579
5284.000000	0.919572
5282.000000	0.919649
5280.000000	0.919752
5278.000000	0.919730
5276.000000	0.919621
5274.000000	0.919545
5272.000000	0.919573
5270.000000	0.919559
5268.000000	0.919552
5266.000000	0.919596
5264.000000	0.919821
5262.000000	0.920033
5260.000000	0.920076
5258.000000	0.919981
5256.000000	0.919883
5254.000000	0.919967
5252.000000	0.920132
5250.000000	0.920235
5248.000000	0.920293
5246.000000	0.920423
5244.000000	0.920578
5242.000000	0.920719
5240.000000	0.920848
5238.000000	0.920998
5236.000000	0.921062
5234.000000	0.921039
5232.000000	0.921052
5230.000000	0.921095
5228.000000	0.921259
5226.000000	0.921475
5224.000000	0.921531
5222.000000	0.921501
5220.000000	0.921701
5218.000000	0.922061
5216.000000	0.922230
5214.000000	0.922248
5212.000000	0.922356
5210.000000	0.922478
5208.000000	0.922580
5206.000000	0.922648
5204.000000	0.922710
5202.000000	0.922789
5200.000000	0.922868
5198.000000	0.923038
5196.000000	0.923159
5194.000000	0.923157
5192.000000	0.923102
5190.000000	0.923221
5188.000000	0.923459
5186.000000	0.923555
5184.000000	0.923548
5182.000000	0.923660
5180.000000	0.923855
5178.000000	0.924061
5176.000000	0.924254
5174.000000	0.924488
5172.000000	0.924544
5170.000000	0.924449
5168.000000	0.924448
5166.000000	0.924689
5164.000000	0.924979
5162.000000	0.925182
5160.000000	0.925205
5158.000000	0.925116
5156.000000	0.925142
5154.000000	0.925360
5152.000000	0.925624
5150.000000	0.925780
5148.000000	0.925926
5146.000000	0.926108
5144.000000	0.926291
5142.000000	0.926432
5140.000000	0.926455
5138.000000	0.926526
5136.000000	0.926673
5134.000000	0.926834
5132.000000	0.926990
5130.000000	0.926995
5128.000000	0.926961
5126.000000	0.926990
5124.000000	0.927234
5122.000000	0.927379
5120.000000	0.927358
5118.000000	0.927339
5116.000000	0.927364
5114.000000	0.927301
5112.000000	0.927321
5110.000000	0.927548
5108.000000	0.927868
5106.000000	0.928073
5104.000000	0.928226
5102.000000	0.928347
5100.000000	0.928368
5098.000000	0.928388
5096.000000	0.928508
5094.000000	0.928670
5092.000000	0.928600
5090.000000	0.928554
5088.000000	0.928708
5086.000000	0.928998
5084.000000	0.929148
5082.000000	0.929018
5080.000000	0.928879
5078.000000	0.929005
5076.000000	0.929269
5074.000000	0.929221
5072.000000	0.929019
5070.000000	0.929145
5068.000000	0.929452
5066.000000	0.929595
5064.000000	0.929471
5062.000000	0.929407
5060.000000	0.929469
5058.000000	0.929586
5056.000000	0.929604
5054.000000	0.929584
5052.000000	0.929558
5050.000000	0.929561
5048.000000	0.929785
5046.000000	0.930004
5044.000000	0.930070
5042.000000	0.930080
5040.000000	0.930132
5038.000000	0.930189
5036.000000	0.930285
5034.000000	0.930456
5032.000000	0.930483
5030.000000	0.930322
5028.000000	0.930226
5026.000000	0.930281
5024.000000	0.930418
5022.000000	0.930575
5020.000000	0.930591
5018.000000	0.930434
5016.000000	0.930295
5014.000000	0.930342
5012.000000	0.930466
5010.000000	0.930500
5008.000000	0.930507
5006.000000	0.930533
5004.000000	0.930650
5002.000000	0.930785
5000.000000	0.930808
4998.000000	0.930738
4996.000000	0.930757
4994.000000	0.930828
4992.000000	0.930782
4990.000000	0.930685
4988.000000	0.930716
4986.000000	0.930766
4984.000000	0.930629
4982.000000	0.930514
4980.000000	0.930538
4978.000000	0.930672
4976.000000	0.930868
4974.000000	0.930920
4972.000000	0.930790
4970.000000	0.930707
4968.000000	0.930816
4966.000000	0.930796
4964.000000	0.930674
4962.000000	0.930607
4960.000000	0.930526
4958.000000	0.930527
4956.000000	0.930646
4954.000000	0.930803
4952.000000	0.930848
4950.000000	0.930902
4948.000000	0.930903
4946.000000	0.930780
4944.000000	0.930552
4942.000000	0.930500
4940.000000	0.930617
4938.000000	0.930585
4936.000000	0.930373
4934.000000	0.930291
4932.000000	0.930482
4930.000000	0.930597
4928.000000	0.930572
4926.000000	0.930455
4924.000000	0.930377
4922.000000	0.930307
4920.000000	0.930302
4918.000000	0.930466
4916.000000	0.930675
4914.000000	0.930756
4912.000000	0.930584
4910.000000	0.930252
4908.000000	0.930004
4906.000000	0.929962
4904.000000	0.930092
4902.000000	0.930172
4900.000000	0.930078
4898.000000	0.929919
4896.000000	0.929891
4894.000000	0.929954
4892.000000	0.930020
4890.000000	0.930049
4888.000000	0.929991
4886.000000	0.929891
4884.000000	0.929885
4882.000000	0.929917
4880.000000	0.929913
4878.000000	0.929903
4876.000000	0.929832
4874.000000	0.929677
4872.000000	0.929486
4870.000000	0.929398
4868.000000	0.929391
4866.000000	0.929440
4864.000000	0.929429
4862.000000	0.929442
4860.000000	0.929427
4858.000000	0.929360
4856.000000	0.929201
4854.000000	0.929012
4852.000000	0.928827
4850.000000	0.928746
4848.000000	0.928779
4846.000000	0.928811
4844.000000	0.928777
4842.000000	0.928625
4840.000000	0.928454
4838.000000	0.928439
4836.000000	0.928481
4834.000000	0.928335
4832.000000	0.928078
4830.000000	0.927955
4828.000000	0.927919
4826.000000	0.927996
4824.000000	0.928184
4822.000000	0.928279
4820.000000	0.928104
4818.000000	0.927842
4816.000000	0.927777
4814.000000	0.927849
4812.000000	0.927826
4810.000000	0.927608
4808.000000	0.927374
4806.000000	0.927252
4804.000000	0.927154
4802.000000	0.927002
4800.000000	0.926926
4798.000000	0.926920
4796.000000	0.926871
4794.000000	0.926729
4792.000000	0.926598
4790.000000	0.926518
4788.000000	0.926457
4786.000000	0.926275
4784.000000	0.925960
4782.000000	0.925678
4780.000000	0.925535
4778.000000	0.925477
4776.000000	0.925404
4774.000000	0.925296
4772.000000	0.925255
4770.000000	0.925258
4768.000000	0.925190
4766.000000	0.925085
4764.000000	0.924981
4762.000000	0.924877
4760.000000	0.924756
4758.000000	0.924635
4756.000000	0.924478
4754.000000	0.924397
4752.000000	0.924356
4750.000000	0.924311
4748.000000	0.924173
4746.000000	0.923970
4744.000000	0.923821
4742.000000	0.923779
4740.000000	0.923720
4738.000000	0.923565
4736.000000	0.923494
4734.000000	0.923452
4732.000000	0.923351
4730.000000	0.923231
4728.000000	0.923151
4726.000000	0.923044
4724.000000	0.922921
4722.000000	0.922772
4720.000000	0.922607
4718.000000	0.922536
4716.000000	0.922529
4714.000000	0.922498
4712.000000	0.922437
4710.000000	0.922291
4708.000000	0.922120
4706.000000	0.922044
4704.000000	0.922009
4702.000000	0.921868
4700.000000	0.921743
4698.000000	0.921686
4696.000000	0.921714
4694.000000	0.921731
4692.000000	0.921608
4690.000000	0.921297
4688.000000	0.921098
4686.000000	0.921129
4684.000000	0.921188
4682.000000	0.921151
4680.000000	0.921113
4678.000000	0.921046
4676.000000	0.920940
4674.000000	0.920816
4672.000000	0.920661
4670.000000	0.920483
4668.000000	0.920411
4666.000000	0.920357
4664.000000	0.920279
4662.000000	0.920270
4660.000000	0.920316
4658.000000	0.920276
4656.000000	0.920165
4654.000000	0.920135
4652.000000	0.920145
4650.000000	0.920186
4648.000000	0.920211
4646.000000	0.920142
4644.000000	0.919973
4642.000000	0.919903
4640.000000	0.919953
4638.000000	0.919938
4636.000000	0.919822
4634.000000	0.919757
4632.000000	0.919759
4630.000000	0.919710
4628.000000	0.919682
4626.000000	0.919761
4624.000000	0.919796
4622.000000	0.919650
4620.000000	0.919438
4618.000000	0.919281
4616.000000	0.919230
4614.000000	0.919220
4612.000000	0.919161
4610.000000	0.919174
4608.000000	0.919293
4606.000000	0.919405
4604.000000	0.919365
4602.000000	0.919246
4600.000000	0.919068
4598.000000	0.918927
4596.000000	0.918895
4594.000000	0.918978
4592.000000	0.919005
4590.000000	0.918840
4588.000000	0.918698
4586.000000	0.918748
4584.000000	0.918835
4582.000000	0.918750
4580.000000	0.918654
4578.000000	0.918643
4576.000000	0.918590
4574.000000	0.918479
4572.000000	0.918392
4570.000000	0.918348
4568.000000	0.918357
4566.000000	0.918331
4564.000000	0.918262
4562.000000	0.918301
4560.000000	0.918420
4558.000000	0.918395
4556.000000	0.918286
4554.000000	0.918260
4552.000000	0.918296
4550.000000	0.918261
4548.000000	0.918193
4546.000000	0.918154
4544.000000	0.918139
4542.000000	0.918046
4540.000000	0.917950
4538.000000	0.917957
4536.000000	0.918047
4534.000000	0.918032
4532.000000	0.918016
4530.000000	0.918096
4528.000000	0.918223
4526.000000	0.918274
4524.000000	0.918228
4522.000000	0.918194
4520.000000	0.918189
4518.000000	0.918110
4516.000000	0.918035
4514.000000	0.918079
4512.000000	0.918089
4510.000000	0.917979
4508.000000	0.917870
4506.000000	0.917895
4504.000000	0.917954
4502.000000	0.917866
4500.000000	0.917709
4498.000000	0.917689
4496.000000	0.917756
4494.000000	0.917762
4492.000000	0.917690
4490.000000	0.917654
4488.000000	0.917641
4486.000000	0.917560
4484.000000	0.917506
4482.000000	0.917565
4480.000000	0.917625
4478.000000	0.917610
4476.000000	0.917595
4474.000000	0.917597
4472.000000	0.917613
4470.000000	0.917640
4468.000000	0.917685
4466.000000	0.917637
4464.000000	0.917474
4462.000000	0.917347
4460.000000	0.917349
4458.000000	0.917489
4456.000000	0.917639
4454.000000	0.917583
4452.000000	0.917466
4450.000000	0.917551
4448.000000	0.917665
4446.000000	0.917598
4444.000000	0.917469
4442.000000	0.917351
4440.000000	0.917292
4438.000000	0.917382
4436.000000	0.917493
4434.000000	0.917422
4432.000000	0.917284
4430.000000	0.917258
4428.000000	0.917363
4426.000000	0.917462
4424.000000	0.917426
4422.000000	0.917327
4420.000000	0.917308
4418.000000	0.917351
4416.000000	0.917421
4414.000000	0.917420
4412.000000	0.917301
4410.000000	0.917260
4408.000000	0.917425
4406.000000	0.917574
4404.000000	0.917535
4402.000000	0.917420
4400.000000	0.917376
4398.000000	0.917370
4396.000000	0.917305
4394.000000	0.917270
4392.000000	0.917363
4390.000000	0.917473
4388.000000	0.917494
4386.000000	0.917452
4384.000000	0.917382
4382.000000	0.917337
4380.000000	0.917402
4378.000000	0.917538
4376.000000	0.917619
4374.000000	0.917618
4372.000000	0.917607
4370.000000	0.917592
4368.000000	0.917565
4366.000000	0.917609
4364.000000	0.917753
4362.000000	0.917815
4360.000000	0.917732
4358.000000	0.917652
4356.000000	0.917698
4354.000000	0.917839
4352.000000	0.917957
4350.000000	0.917981
4348.000000	0.918019
4346.000000	0.918069
4344.000000	0.918010
4342.000000	0.917881
4340.000000	0.917857
4338.000000	0.917939
4336.000000	0.918040
4334.000000	0.918089
4332.000000	0.918078
4330.000000	0.918091
4328.000000	0.918283
4326.000000	0.918456
4324.000000	0.918441
4322.000000	0.918410
4320.000000	0.918460
4318.000000	0.918495
4316.000000	0.918495
4314.000000	0.918433
4312.000000	0.918402
4310.000000	0.918488
4308.000000	0.918579
4306.000000	0.918644
4304.000000	0.918708
4302.000000	0.918709
4300.000000	0.918689
4298.000000	0.918681
4296.000000	0.918698
4294.000000	0.918773
4292.000000	0.918852
4290.000000	0.918864
4288.000000	0.918833
4286.000000	0.918756
4284.000000	0.918702
4282.000000	0.918756
4280.000000	0.918942
4278.000000	0.919030
4276.000000	0.918940
4274.000000	0.918889
4272.000000	0.918937
4270.000000	0.918959
4268.000000	0.918977
4266.000000	0.919054
4264.000000	0.919106
4262.000000	0.919086
4260.000000	0.919092
4258.000000	0.919163
4256.000000	0.919212
4254.000000	0.919265
4252.000000	0.919303
4250.000000	0.919323
4248.000000	0.919347
4246.000000	0.919349
4244.000000	0.919304
4242.000000	0.919271
4240.000000	0.919327
4238.000000	0.919456
4236.000000	0.919493
4234.000000	0.919434
4232.000000	0.919406
4230.000000	0.919453
4228.000000	0.919520
4226.000000	0.919564
4224.000000	0.919583
4222.000000	0.919621
4220.000000	0.919686
4218.000000	0.919669
4216.000000	0.919545
4214.000000	0.919533
4212.000000	0.919553
4210.000000	0.919501
4208.000000	0.919509
4206.000000	0.919530
4204.000000	0.919524
4202.000000	0.919535
4200.000000	0.919492
4198.000000	0.919512
4196.000000	0.919533
4194.000000	0.919413
4192.000000	0.919315
4190.000000	0.919311
4188.000000	0.919316
4186.000000	0.919346
4184.000000	0.919332
4182.000000	0.919324
4180.000000	0.919419
4178.000000	0.919480
4176.000000	0.919452
4174.000000	0.919477
4172.000000	0.919523
4170.000000	0.919523
4168.000000	0.919482
4166.000000	0.919448
4164.000000	0.919472
4162.000000	0.919552
4160.000000	0.919588
4158.000000	0.919529
4156.000000	0.919447
4154.000000	0.919440
4152.000000	0.919437
4150.000000	0.919416
4148.000000	0.919398
4146.000000	0.919354
4144.000000	0.919293
4142.000000	0.919349
4140.000000	0.919433
4138.000000	0.919356
4136.000000	0.919269
4134.000000	0.919294
4132.000000	0.919314
4130.000000	0.919364
4128.000000	0.919410
4126.000000	0.919366
4124.000000	0.919270
4122.000000	0.919210
4120.000000	0.919223
4118.000000	0.919213
4116.000000	0.919169
4114.000000	0.919202
4112.000000	0.919239
4110.000000	0.919217
4108.000000	0.919150
4106.000000	0.919049
4104.000000	0.918979
4102.000000	0.918970
4100.000000	0.919000
4098.000000	0.919021
4096.000000	0.919034
4094.000000	0.919066
4092.000000	0.919066
4090.000000	0.919032
4088.000000	0.919018
4086.000000	0.919008
4084.000000	0.919028
4082.000000	0.919052
4080.000000	0.919051
4078.000000	0.919019
4076.000000	0.918972
4074.000000	0.918993
4072.000000	0.919043
4070.000000	0.918990
4068.000000	0.918935
4066.000000	0.918881
4064.000000	0.918820
4062.000000	0.918862
4060.000000	0.918913
4058.000000	0.918860
4056.000000	0.918818
4054.000000	0.918822
4052.000000	0.918838
4050.000000	0.918873
4048.000000	0.918849
4046.000000	0.918731
4044.000000	0.918647
4042.000000	0.918639
4040.000000	0.918669
4038.000000	0.918647
4036.000000	0.918575
4034.000000	0.918561
4032.000000	0.918602
4030.000000	0.918625
4028.000000	0.918597
4026.000000	0.918589
4024.000000	0.918581
4022.000000	0.918493
4020.000000	0.918473
4018.000000	0.918503
4016.000000	0.918465
4014.000000	0.918446
4012.000000	0.918451
4010.000000	0.918385
4008.000000	0.918316
4006.000000	0.918271
4004.000000	0.918207
4002.000000	0.918169
4000.000000	0.918135
3998.000000	0.918075
3996.000000	0.918045
3994.000000	0.918013
3992.000000	0.918005
3990.000000	0.918083
3988.000000	0.918169
3986.000000	0.918158
3984.000000	0.918075
3982.000000	0.917969
3980.000000	0.917891
3978.000000	0.917877
3976.000000	0.917870
3974.000000	0.917857
3972.000000	0.917816
3970.000000	0.917728
3968.000000	0.917691
3966.000000	0.917698
3964.000000	0.917625
3962.000000	0.917493
3960.000000	0.917438
3958.000000	0.917437
3956.000000	0.917411
3954.000000	0.917335
3952.000000	0.917206
3950.000000	0.917117
3948.000000	0.917010
3946.000000	0.916829
3944.000000	0.916749
3942.000000	0.916742
3940.000000	0.916667
3938.000000	0.916585
3936.000000	0.916570
3934.000000	0.916536
3932.000000	0.916407
3930.000000	0.916334
3928.000000	0.916349
3926.000000	0.916261
3924.000000	0.916152
3922.000000	0.916079
3920.000000	0.915922
3918.000000	0.915749
3916.000000	0.915656
3914.000000	0.915622
3912.000000	0.915590
3910.000000	0.915582
3908.000000	0.915608
3906.000000	0.915505
3904.000000	0.915158
3902.000000	0.914782
3900.000000	0.914598
3898.000000	0.914566
3896.000000	0.914655
3894.000000	0.914692
3892.000000	0.914511
3890.000000	0.914379
3888.000000	0.914409
3886.000000	0.914267
3884.000000	0.914104
3882.000000	0.914148
3880.000000	0.914040
3878.000000	0.913889
3876.000000	0.913892
3874.000000	0.913858
3872.000000	0.913707
3870.000000	0.913379
3868.000000	0.913170
3866.000000	0.913187
3864.000000	0.913113
3862.000000	0.913023
3860.000000	0.913026
3858.000000	0.913134
3856.000000	0.913103
3854.000000	0.912427
3852.000000	0.911785
3850.000000	0.912008
3848.000000	0.912471
3846.000000	0.912579
3844.000000	0.912470
3842.000000	0.912368
3840.000000	0.912236
3838.000000	0.911895
3836.000000	0.911572
3834.000000	0.911523
3832.000000	0.911524
3830.000000	0.911493
3828.000000	0.911502
3826.000000	0.911494
3824.000000	0.911450
3822.000000	0.911215
3820.000000	0.911029
3818.000000	0.911058
3816.000000	0.910803
3814.000000	0.910535
3812.000000	0.910654
3810.000000	0.910718
3808.000000	0.910488
3806.000000	0.910331
3804.000000	0.910441
3802.000000	0.910236
3800.000000	0.909893
3798.000000	0.909972
3796.000000	0.910037
3794.000000	0.909940
3792.000000	0.909920
3790.000000	0.909964
3788.000000	0.909985
3786.000000	0.909881
3784.000000	0.909742
3782.000000	0.909692
3780.000000	0.909615
3778.000000	0.909486
3776.000000	0.909425
3774.000000	0.909456
3772.000000	0.909462
3770.000000	0.909339
3768.000000	0.909237
3766.000000	0.909210
3764.000000	0.909220
3762.000000	0.909173
3760.000000	0.909000
3758.000000	0.908900
3756.000000	0.909001
3754.000000	0.909025
3752.000000	0.908694
3750.000000	0.908362
3748.000000	0.908492
3746.000000	0.908636
3744.000000	0.908301
3742.000000	0.908281
3740.000000	0.908714
3738.000000	0.908820
3736.000000	0.908646
3734.000000	0.908541
3732.000000	0.908567
3730.000000	0.908825
3728.000000	0.909156
3726.000000	0.909227
3724.000000	0.909190
3722.000000	0.909230
3720.000000	0.909316
3718.000000	0.909399
3716.000000	0.909532
3714.000000	0.909648
3712.000000	0.909529
3710.000000	0.909388
3708.000000	0.909578
3706.000000	0.909940
3704.000000	0.910191
3702.000000	0.910339
3700.000000	0.910517
3698.000000	0.910671
3696.000000	0.910833
3694.000000	0.911171
3692.000000	0.911472
3690.000000	0.911504
3688.000000	0.911433
3686.000000	0.911705
3684.000000	0.912230
3682.000000	0.912617
3680.000000	0.912973
3678.000000	0.913243
3676.000000	0.913193
3674.000000	0.913336
3672.000000	0.913901
3670.000000	0.914267
3668.000000	0.914606
3666.000000	0.915208
3664.000000	0.915904
3662.000000	0.916558
3660.000000	0.917090
3658.000000	0.917496
3656.000000	0.917817
3654.000000	0.918377
3652.000000	0.919084
3650.000000	0.919436
3648.000000	0.919664
3646.000000	0.920297
3644.000000	0.921208
3642.000000	0.922049
3640.000000	0.922762
3638.000000	0.923490
3636.000000	0.924312
3634.000000	0.925075
3632.000000	0.925823
3630.000000	0.926340
3628.000000	0.926680
3626.000000	0.927506
3624.000000	0.928602
3622.000000	0.929475
3620.000000	0.930084
3618.000000	0.930701
3616.000000	0.931531
3614.000000	0.932394
3612.000000	0.933172
3610.000000	0.933898
3608.000000	0.934596
3606.000000	0.935353
3604.000000	0.936181
3602.000000	0.936976
3600.000000	0.937705
3598.000000	0.938399
3596.000000	0.939087
3594.000000	0.939788
3592.000000	0.940491
3590.000000	0.941122
3588.000000	0.941582
3586.000000	0.942067
3584.000000	0.942740
3582.000000	0.943389
3580.000000	0.943898
3578.000000	0.944360
3576.000000	0.944858
3574.000000	0.945371
3572.000000	0.945841
3570.000000	0.946240
3568.000000	0.946539
3566.000000	0.946790
3564.000000	0.947147
3562.000000	0.947609
3560.000000	0.948022
3558.000000	0.948314
3556.000000	0.948589
3554.000000	0.948894
3552.000000	0.949180
3550.000000	0.949458
3548.000000	0.949642
3546.000000	0.949786
3544.000000	0.950029
3542.000000	0.950274
3540.000000	0.950467
3538.000000	0.950610
3536.000000	0.950725
3534.000000	0.950893
3532.000000	0.951089
3530.000000	0.951256
3528.000000	0.951409
3526.000000	0.951582
3524.000000	0.951774
3522.000000	0.951937
3520.000000	0.952090
3518.000000	0.952250
3516.000000	0.952449
3514.000000	0.952688
3512.000000	0.952900
3510.000000	0.953123
3508.000000	0.953453
3506.000000	0.953717
3504.000000	0.953789
3502.000000	0.953941
3500.000000	0.954236
3498.000000	0.954520
3496.000000	0.954788
3494.000000	0.955065
3492.000000	0.955374
3490.000000	0.955674
3488.000000	0.955962
3486.000000	0.956218
3484.000000	0.956477
3482.000000	0.956824
3480.000000	0.957192
3478.000000	0.957497
3476.000000	0.957755
3474.000000	0.958033
3472.000000	0.958225
3470.000000	0.958349
3468.000000	0.958605
3466.000000	0.958967
3464.000000	0.959325
3462.000000	0.959614
3460.000000	0.959874
3458.000000	0.960123
3456.000000	0.960427
3454.000000	0.960802
3452.000000	0.961147
3450.000000	0.961387
3448.000000	0.961504
3446.000000	0.961677
3444.000000	0.961978
3442.000000	0.962167
3440.000000	0.962295
3438.000000	0.962538
3436.000000	0.962744
3434.000000	0.962882
3432.000000	0.963013
3430.000000	0.963193
3428.000000	0.963392
3426.000000	0.963569
3424.000000	0.963754
3422.000000	0.963906
3420.000000	0.964005
3418.000000	0.964124
3416.000000	0.964300
3414.000000	0.964465
3412.000000	0.964585
3410.000000	0.964717
3408.000000	0.964820
3406.000000	0.964891
3404.000000	0.964971
3402.000000	0.965035
3400.000000	0.965203
3398.000000	0.965380
3396.000000	0.965396
3394.000000	0.965379
3392.000000	0.965477
3390.000000	0.965632
3388.000000	0.965786
3386.000000	0.965815
3384.000000	0.965812
3382.000000	0.965898
3380.000000	0.965942
3378.000000	0.965943
3376.000000	0.965970
3374.000000	0.966061
3372.000000	0.966178
3370.000000	0.966147
3368.000000	0.966110
3366.000000	0.966307
3364.000000	0.966448
3362.000000	0.966386
3360.000000	0.966350
3358.000000	0.966399
3356.000000	0.966471
3354.000000	0.966611
3352.000000	0.966721
3350.000000	0.966689
3348.000000	0.966642
3346.000000	0.966637
3344.000000	0.966685
3342.000000	0.966787
3340.000000	0.966899
3338.000000	0.966958
3336.000000	0.966945
3334.000000	0.966925
3332.000000	0.966946
3330.000000	0.967034
3328.000000	0.967052
3326.000000	0.966929
3324.000000	0.966926
3322.000000	0.967110
3320.000000	0.967214
3318.000000	0.967206
3316.000000	0.967281
3314.000000	0.967349
3312.000000	0.967393
3310.000000	0.967471
3308.000000	0.967464
3306.000000	0.967420
3304.000000	0.967499
3302.000000	0.967599
3300.000000	0.967605
3298.000000	0.967634
3296.000000	0.967738
3294.000000	0.967794
3292.000000	0.967832
3290.000000	0.967941
3288.000000	0.968014
3286.000000	0.968004
3284.000000	0.968020
3282.000000	0.968091
3280.000000	0.968166
3278.000000	0.968244
3276.000000	0.968264
3274.000000	0.968324
3272.000000	0.968449
3270.000000	0.968480
3268.000000	0.968425
3266.000000	0.968455
3264.000000	0.968564
3262.000000	0.968632
3260.000000	0.968715
3258.000000	0.968829
3256.000000	0.968915
3254.000000	0.968977
3252.000000	0.968938
3250.000000	0.968910
3248.000000	0.968988
3246.000000	0.969037
3244.000000	0.969016
3242.000000	0.969036
3240.000000	0.969122
3238.000000	0.969182
3236.000000	0.969233
3234.000000	0.969275
3232.000000	0.969303
3230.000000	0.969289
3228.000000	0.969317
3226.000000	0.969456
3224.000000	0.969526
3222.000000	0.969573
3220.000000	0.969649
3218.000000	0.969676
3216.000000	0.969692
3214.000000	0.969758
3212.000000	0.969802
3210.000000	0.969816
3208.000000	0.969833
3206.000000	0.969856
3204.000000	0.969862
3202.000000	0.969848
3200.000000	0.969894
3198.000000	0.969904
3196.000000	0.969862
3194.000000	0.969849
3192.000000	0.969887
3190.000000	0.969942
3188.000000	0.969929
3186.000000	0.969932
3184.000000	0.969973
3182.000000	0.969949
3180.000000	0.969940
3178.000000	0.969981
3176.000000	0.970038
3174.000000	0.970098
3172.000000	0.970148
3170.000000	0.970262
3168.000000	0.970365
3166.000000	0.970319
3164.000000	0.970297
3162.000000	0.970349
3160.000000	0.970384
3158.000000	0.970419
3156.000000	0.970431
3154.000000	0.970388
3152.000000	0.970381
3150.000000	0.970462
3148.000000	0.970507
3146.000000	0.970525
3144.000000	0.970553
3142.000000	0.970518
3140.000000	0.970470
3138.000000	0.970544
3136.000000	0.970636
3134.000000	0.970674
3132.000000	0.970710
3130.000000	0.970712
3128.000000	0.970711
3126.000000	0.970733
3124.000000	0.970783
3122.000000	0.970832
3120.000000	0.970825
3118.000000	0.970850
3116.000000	0.970902
3114.000000	0.970960
3112.000000	0.971074
3110.000000	0.971158
3108.000000	0.971180
3106.000000	0.971113
3104.000000	0.971017
3102.000000	0.971078
3100.000000	0.971215
3098.000000	0.971306
3096.000000	0.971343
3094.000000	0.971313
3092.000000	0.971205
3090.000000	0.971106
3088.000000	0.971181
3086.000000	0.971359
3084.000000	0.971431
3082.000000	0.971415
3080.000000	0.971450
3078.000000	0.971478
3076.000000	0.971466
3074.000000	0.971490
3072.000000	0.971529
3070.000000	0.971490
3068.000000	0.971451
3066.000000	0.971467
3064.000000	0.971459
3062.000000	0.971486
3060.000000	0.971547
3058.000000	0.971555
3056.000000	0.971559
3054.000000	0.971635
3052.000000	0.971608
3050.000000	0.971453
3048.000000	0.971497
3046.000000	0.971580
3044.000000	0.971518
3042.000000	0.971452
3040.000000	0.971421
3038.000000	0.971385
3036.000000	0.971415
3034.000000	0.971496
3032.000000	0.971517
3030.000000	0.971464
3028.000000	0.971430
3026.000000	0.971485
3024.000000	0.971477
3022.000000	0.971400
3020.000000	0.971307
3018.000000	0.971183
3016.000000	0.971114
3014.000000	0.971052
3012.000000	0.970980
3010.000000	0.970967
3008.000000	0.970943
3006.000000	0.970878
3004.000000	0.970868
3002.000000	0.970885
3000.000000	0.970846
2998.000000	0.970755
2996.000000	0.970714
2994.000000	0.970745
2992.000000	0.970715
2990.000000	0.970640
2988.000000	0.970546
2986.000000	0.970510
2984.000000	0.970448
2982.000000	0.970391
2980.000000	0.970380
2978.000000	0.970489
2976.000000	0.970648
2974.000000	0.970698
2972.000000	0.970780
2970.000000	0.970922
2968.000000	0.971021
2966.000000	0.970977
2964.000000	0.970842
2962.000000	0.970647
2960.000000	0.970362
2958.000000	0.970035
2956.000000	0.969737
2954.000000	0.969478
2952.000000	0.969238
2950.000000	0.969041
2948.000000	0.968931
2946.000000	0.968868
2944.000000	0.968758
2942.000000	0.968639
2940.000000	0.968565
2938.000000	0.968451
2936.000000	0.968298
2934.000000	0.968149
2932.000000	0.967984
2930.000000	0.967862
2928.000000	0.967687
2926.000000	0.967446
2924.000000	0.967157
2922.000000	0.966811
2920.000000	0.966497
2918.000000	0.966289
2916.000000	0.966163
2914.000000	0.966128
2912.000000	0.966144
2910.000000	0.966110
2908.000000	0.966080
2906.000000	0.966072
2904.000000	0.965970
2902.000000	0.965821
2900.000000	0.965702
2898.000000	0.965536
2896.000000	0.965389
2894.000000	0.965257
2892.000000	0.965151
2890.000000	0.965051
2888.000000	0.964879
2886.000000	0.964741
2884.000000	0.964617
2882.000000	0.964477
2880.000000	0.964397
2878.000000	0.964351
2876.000000	0.964251
2874.000000	0.964121
2872.000000	0.964034
2870.000000	0.964027
2868.000000	0.964025
2866.000000	0.963884
2864.000000	0.963683
2862.000000	0.963446
2860.000000	0.963142
2858.000000	0.962866
2856.000000	0.962717
2854.000000	0.962609
2852.000000	0.962423
2850.000000	0.962245
2848.000000	0.962171
2846.000000	0.962174
2844.000000	0.962134
2842.000000	0.962060
2840.000000	0.962002
2838.000000	0.961982
2836.000000	0.961938
2834.000000	0.961859
2832.000000	0.961817
2830.000000	0.961741
2828.000000	0.961666
2826.000000	0.961620
2824.000000	0.961559
2822.000000	0.961491
2820.000000	0.961404
2818.000000	0.961313
2816.000000	0.961265
2814.000000	0.961230
2812.000000	0.961172
2810.000000	0.961063
2808.000000	0.960989
2806.000000	0.960949
2804.000000	0.960889
2802.000000	0.960859
2800.000000	0.960776
2798.000000	0.960700
2796.000000	0.960723
2794.000000	0.960696
2792.000000	0.960634
2790.000000	0.960529
2788.000000	0.960407
2786.000000	0.960374
2784.000000	0.960375
2782.000000	0.960356
2780.000000	0.960337
2778.000000	0.960315
2776.000000	0.960297
2774.000000	0.960275
2772.000000	0.960216
2770.000000	0.960163
2768.000000	0.960178
2766.000000	0.960194
2764.000000	0.960126
2762.000000	0.960101
2760.000000	0.960153
2758.000000	0.960162
2756.000000	0.960114
2754.000000	0.960072
2752.000000	0.960009
2750.000000	0.959980
2748.000000	0.959996
2746.000000	0.959988
2744.000000	0.960038
2742.000000	0.960093
2740.000000	0.960085
2738.000000	0.960055
2736.000000	0.960102
2734.000000	0.960143
2732.000000	0.960081
2730.000000	0.960062
2728.000000	0.960158
2726.000000	0.960243
2724.000000	0.960245
2722.000000	0.960197
2720.000000	0.960161
2718.000000	0.960214
2716.000000	0.960279
2714.000000	0.960280
2712.000000	0.960306
2710.000000	0.960312
2708.000000	0.960336
2706.000000	0.960466
2704.000000	0.960554
2702.000000	0.960563
2700.000000	0.960583
2698.000000	0.960610
2696.000000	0.960651
2694.000000	0.960745
2692.000000	0.960827
2690.000000	0.960867
2688.000000	0.960909
2686.000000	0.960979
2684.000000	0.961118
2682.000000	0.961228
2680.000000	0.961279
2678.000000	0.961368
2676.000000	0.961437
2674.000000	0.961464
2672.000000	0.961551
2670.000000	0.961631
2668.000000	0.961723
2666.000000	0.961845
2664.000000	0.961859
2662.000000	0.961868
2660.000000	0.962001
2658.000000	0.962143
2656.000000	0.962247
2654.000000	0.962337
2652.000000	0.962410
2650.000000	0.962516
2648.000000	0.962660
2646.000000	0.962811
2644.000000	0.962921
2642.000000	0.962953
2640.000000	0.963038
2638.000000	0.963170
2636.000000	0.963240
2634.000000	0.963312
2632.000000	0.963398
2630.000000	0.963506
2628.000000	0.963648
2626.000000	0.963754
2624.000000	0.963867
2622.000000	0.963993
2620.000000	0.964065
2618.000000	0.964146
2616.000000	0.964303
2614.000000	0.964461
2612.000000	0.964566
2610.000000	0.964646
2608.000000	0.964747
2606.000000	0.964841
2604.000000	0.964952
2602.000000	0.965068
2600.000000	0.965100
2598.000000	0.965165
2596.000000	0.965278
2594.000000	0.965371
2592.000000	0.965475
2590.000000	0.965618
2588.000000	0.965746
2586.000000	0.965834
2584.000000	0.965941
2582.000000	0.966029
2580.000000	0.966067
2578.000000	0.966108
2576.000000	0.966210
2574.000000	0.966381
2572.000000	0.966492
2570.000000	0.966498
2568.000000	0.966530
2566.000000	0.966606
2564.000000	0.966731
2562.000000	0.966838
2560.000000	0.966889
2558.000000	0.966985
2556.000000	0.967145
2554.000000	0.967235
2552.000000	0.967272
2550.000000	0.967355
2548.000000	0.967412
2546.000000	0.967534
2544.000000	0.967718
2542.000000	0.967797
2540.000000	0.967828
2538.000000	0.967923
2536.000000	0.968004
2534.000000	0.968085
2532.000000	0.968145
2530.000000	0.968176
2528.000000	0.968287
2526.000000	0.968369
2524.000000	0.968396
2522.000000	0.968512
2520.000000	0.968676
2518.000000	0.968786
2516.000000	0.968841
2514.000000	0.968948
2512.000000	0.969062
2510.000000	0.969156
2508.000000	0.969279
2506.000000	0.969406
2504.000000	0.969516
2502.000000	0.969638
2500.000000	0.969762
2498.000000	0.969835
2496.000000	0.969916
2494.000000	0.970064
2492.000000	0.970159
2490.000000	0.970268
2488.000000	0.970462
2486.000000	0.970686
2484.000000	0.970861
2482.000000	0.971003
2480.000000	0.971152
2478.000000	0.971282
2476.000000	0.971399
2474.000000	0.971498
2472.000000	0.971661
2470.000000	0.971866
2468.000000	0.972067
2466.000000	0.972271
2464.000000	0.972458
2462.000000	0.972594
2460.000000	0.972747
2458.000000	0.972905
2456.000000	0.972991
2454.000000	0.973158
2452.000000	0.973380
2450.000000	0.973554
2448.000000	0.973644
2446.000000	0.973719
2444.000000	0.973854
2442.000000	0.973986
2440.000000	0.974064
2438.000000	0.974160
2436.000000	0.974316
2434.000000	0.974449
2432.000000	0.974535
2430.000000	0.974636
2428.000000	0.974714
2426.000000	0.974679
2424.000000	0.974658
2422.000000	0.974649
2420.000000	0.974652
2418.000000	0.974687
2416.000000	0.974649
2414.000000	0.974579
2412.000000	0.974461
2410.000000	0.974334
2408.000000	0.974227
2406.000000	0.974168
2404.000000	0.974139
2402.000000	0.974016
2400.000000	0.973843
2398.000000	0.973795
2396.000000	0.973788
2394.000000	0.973732
2392.000000	0.973727
2390.000000	0.973713
2388.000000	0.973630
2386.000000	0.973583
2384.000000	0.973624
2382.000000	0.973647
2380.000000	0.973674
2378.000000	0.973711
2376.000000	0.973693
2374.000000	0.973720
2372.000000	0.973770
2370.000000	0.973717
2368.000000	0.973699
2366.000000	0.973770
2364.000000	0.973802
2362.000000	0.973713
2360.000000	0.973695
2358.000000	0.973779
2356.000000	0.973843
2354.000000	0.973895
2352.000000	0.974045
2350.000000	0.974280
2348.000000	0.974548
2346.000000	0.974743
2344.000000	0.975058
2342.000000	0.975503
2340.000000	0.975723
2338.000000	0.975507
2336.000000	0.975131
2334.000000	0.974910
2332.000000	0.974856
2330.000000	0.974915
2328.000000	0.975028
2326.000000	0.975144
2324.000000	0.975215
2322.000000	0.975258
2320.000000	0.975360
2318.000000	0.975482
2316.000000	0.975599
2314.000000	0.975678
2312.000000	0.975743
2310.000000	0.975810
2308.000000	0.975903
2306.000000	0.976054
2304.000000	0.976118
2302.000000	0.976133
2300.000000	0.976195
2298.000000	0.976285
2296.000000	0.976360
2294.000000	0.976428
2292.000000	0.976509
2290.000000	0.976582
2288.000000	0.976619
2286.000000	0.976656
2284.000000	0.976742
2282.000000	0.976833
2280.000000	0.976887
2278.000000	0.976924
2276.000000	0.977002
2274.000000	0.977122
2272.000000	0.977162
2270.000000	0.977186
2268.000000	0.977253
2266.000000	0.977286
2264.000000	0.977287
2262.000000	0.977335
2260.000000	0.977466
2258.000000	0.977548
2256.000000	0.977584
2254.000000	0.977634
2252.000000	0.977684
2250.000000	0.977670
2248.000000	0.977634
2246.000000	0.977672
2244.000000	0.977767
2242.000000	0.977804
2240.000000	0.977806
2238.000000	0.977870
2236.000000	0.977904
2234.000000	0.977899
2232.000000	0.977886
2230.000000	0.977856
2228.000000	0.977883
2226.000000	0.977947
2224.000000	0.977959
2222.000000	0.977956
2220.000000	0.977961
2218.000000	0.977951
2216.000000	0.977945
2214.000000	0.977996
2212.000000	0.977999
2210.000000	0.977956
2208.000000	0.977955
2206.000000	0.977958
2204.000000	0.977958
2202.000000	0.977920
2200.000000	0.977871
2198.000000	0.977825
2196.000000	0.977793
2194.000000	0.977786
2192.000000	0.977762
2190.000000	0.977733
2188.000000	0.977704
2186.000000	0.977669
2184.000000	0.977607
2182.000000	0.977537
2180.000000	0.977495
2178.000000	0.977427
2176.000000	0.977354
2174.000000	0.977313
2172.000000	0.977324
2170.000000	0.977334
2168.000000	0.977254
2166.000000	0.977130
2164.000000	0.977075
2162.000000	0.977027
2160.000000	0.976994
2158.000000	0.976969
2156.000000	0.976839
2154.000000	0.976737
2152.000000	0.976641
2150.000000	0.976541
2148.000000	0.976485
2146.000000	0.976446
2144.000000	0.976405
2142.000000	0.976318
2140.000000	0.976236
2138.000000	0.976140
2136.000000	0.975977
2134.000000	0.975816
2132.000000	0.975704
2130.000000	0.975665
2128.000000	0.975602
2126.000000	0.975481
2124.000000	0.975388
2122.000000	0.975301
2120.000000	0.975199
2118.000000	0.975120
2116.000000	0.975025
2114.000000	0.974935
2112.000000	0.974806
2110.000000	0.974660
2108.000000	0.974530
2106.000000	0.974349
2104.000000	0.974180
2102.000000	0.974084
2100.000000	0.973967
2098.000000	0.973859
2096.000000	0.973752
2094.000000	0.973654
2092.000000	0.973553
2090.000000	0.973415
2088.000000	0.973287
2086.000000	0.973198
2084.000000	0.973121
2082.000000	0.972985
2080.000000	0.972806
2078.000000	0.972707
2076.000000	0.972601
2074.000000	0.972496
2072.000000	0.972386
2070.000000	0.972231
2068.000000	0.972064
2066.000000	0.971883
2064.000000	0.971788
2062.000000	0.971788
2060.000000	0.971724
2058.000000	0.971502
2056.000000	0.971307
2054.000000	0.971234
2052.000000	0.971181
2050.000000	0.971020
2048.000000	0.970814
2046.000000	0.970699
2044.000000	0.970609
2042.000000	0.970460
2040.000000	0.970330
2038.000000	0.970240
2036.000000	0.970161
2034.000000	0.970034
2032.000000	0.969855
2030.000000	0.969704
2028.000000	0.969552
2026.000000	0.969482
2024.000000	0.969443
2022.000000	0.969418
2020.000000	0.969388
2018.000000	0.969246
2016.000000	0.969045
2014.000000	0.968905
2012.000000	0.968812
2010.000000	0.968699
2008.000000	0.968588
2006.000000	0.968503
2004.000000	0.968411
2002.000000	0.968324
2000.000000	0.968232
1998.000000	0.968178
1996.000000	0.968125
1994.000000	0.968038
1992.000000	0.967899
1990.000000	0.967808
1988.000000	0.967804
1986.000000	0.967816
1984.000000	0.967757
1982.000000	0.967706
1980.000000	0.967703
1978.000000	0.967613
1976.000000	0.967478
1974.000000	0.967438
1972.000000	0.967457
1970.000000	0.967431
1968.000000	0.967345
1966.000000	0.967250
1964.000000	0.967270
1962.000000	0.967337
1960.000000	0.967300
1958.000000	0.967195
1956.000000	0.967246
1954.000000	0.967336
1952.000000	0.967265
1950.000000	0.967196
1948.000000	0.967205
1946.000000	0.967229
1944.000000	0.967232
1942.000000	0.967218
1940.000000	0.967259
1938.000000	0.967340
1936.000000	0.967387
1934.000000	0.967398
1932.000000	0.967468
1930.000000	0.967533
1928.000000	0.967558
1926.000000	0.967587
1924.000000	0.967596
1922.000000	0.967589
1920.000000	0.967599
1918.000000	0.967586
1916.000000	0.967720
1914.000000	0.967890
1912.000000	0.967944
1910.000000	0.968023
1908.000000	0.968110
1906.000000	0.968160
1904.000000	0.968228
1902.000000	0.968333
1900.000000	0.968412
1898.000000	0.968443
1896.000000	0.968486
1894.000000	0.968548
1892.000000	0.968614
1890.000000	0.968671
1888.000000	0.968749
1886.000000	0.968847
1884.000000	0.968859
1882.000000	0.968921
1880.000000	0.969071
1878.000000	0.969212
1876.000000	0.969253
1874.000000	0.969238
1872.000000	0.969287
1870.000000	0.969370
1868.000000	0.969408
1866.000000	0.969521
1864.000000	0.969606
1862.000000	0.969702
1860.000000	0.969764
1858.000000	0.969795
1856.000000	0.969893
1854.000000	0.970002
1852.000000	0.970110
1850.000000	0.970205
1848.000000	0.970260
1846.000000	0.970316
1844.000000	0.970281
1842.000000	0.970406
1840.000000	0.970646
1838.000000	0.970782
1836.000000	0.970872
1834.000000	0.970944
1832.000000	0.971022
1830.000000	0.971044
1828.000000	0.971144
1826.000000	0.971286
1824.000000	0.971376
1822.000000	0.971568
1820.000000	0.971770
1818.000000	0.971938
1816.000000	0.972051
1814.000000	0.972106
1812.000000	0.972240
1810.000000	0.972401
1808.000000	0.972526
1806.000000	0.972676
1804.000000	0.972828
1802.000000	0.972915
1800.000000	0.972987
1798.000000	0.973093
1796.000000	0.973327
1794.000000	0.973444
1792.000000	0.973346
1790.000000	0.973478
1788.000000	0.973722
1786.000000	0.973895
1784.000000	0.974033
1782.000000	0.974214
1780.000000	0.974350
1778.000000	0.974542
1776.000000	0.974807
1774.000000	0.974905
1772.000000	0.974748
1770.000000	0.974916
1768.000000	0.975203
1766.000000	0.975399
1764.000000	0.975696
1762.000000	0.975792
1760.000000	0.975879
1758.000000	0.976043
1756.000000	0.976154
1754.000000	0.976533
1752.000000	0.976768
1750.000000	0.976734
1748.000000	0.976881
1746.000000	0.977127
1744.000000	0.977347
1742.000000	0.977494
1740.000000	0.977469
1738.000000	0.977605
1736.000000	0.977857
1734.000000	0.977594
1732.000000	0.977691
1730.000000	0.978181
1728.000000	0.978386
1726.000000	0.978488
1724.000000	0.978560
1722.000000	0.978749
1720.000000	0.978926
1718.000000	0.978709
1716.000000	0.978524
1714.000000	0.978746
1712.000000	0.978987
1710.000000	0.979230
1708.000000	0.979338
1706.000000	0.979302
1704.000000	0.979376
1702.000000	0.979500
1700.000000	0.979077
1698.000000	0.979159
1696.000000	0.979159
1694.000000	0.979181
1692.000000	0.979707
1690.000000	0.979859
1688.000000	0.979941
1686.000000	0.979875
1684.000000	0.979386
1682.000000	0.979559
1680.000000	0.980014
1678.000000	0.980165
1676.000000	0.980106
1674.000000	0.979998
1672.000000	0.980173
1670.000000	0.980162
1668.000000	0.980168
1666.000000	0.980415
1664.000000	0.980494
1662.000000	0.980410
1660.000000	0.980517
1658.000000	0.980684
1656.000000	0.980831
1654.000000	0.980377
1652.000000	0.979719
1650.000000	0.980258
1648.000000	0.980706
1646.000000	0.980510
1644.000000	0.980583
1642.000000	0.980818
1640.000000	0.980900
1638.000000	0.980949
1636.000000	0.980588
1634.000000	0.980390
1632.000000	0.980729
1630.000000	0.980944
1628.000000	0.980970
1626.000000	0.980963
1624.000000	0.980832
1622.000000	0.980633
1620.000000	0.980787
1618.000000	0.980812
1616.000000	0.980565
1614.000000	0.980837
1612.000000	0.981217
1610.000000	0.981209
1608.000000	0.981107
1606.000000	0.980985
1604.000000	0.980904
1602.000000	0.980890
1600.000000	0.980949
1598.000000	0.980995
1596.000000	0.981036
1594.000000	0.981107
1592.000000	0.981140
1590.000000	0.981173
1588.000000	0.981241
1586.000000	0.981305
1584.000000	0.981310
1582.000000	0.981303
1580.000000	0.981401
1578.000000	0.981418
1576.000000	0.981107
1574.000000	0.981153
1572.000000	0.981427
1570.000000	0.981249
1568.000000	0.981208
1566.000000	0.981472
1564.000000	0.981642
1562.000000	0.981706
1560.000000	0.981336
1558.000000	0.980834
1556.000000	0.981080
1554.000000	0.981386
1552.000000	0.981636
1550.000000	0.981798
1548.000000	0.981871
1546.000000	0.981929
1544.000000	0.981841
1542.000000	0.981692
1540.000000	0.981448
1538.000000	0.981487
1536.000000	0.981990
1534.000000	0.982097
1532.000000	0.982067
1530.000000	0.982254
1528.000000	0.982340
1526.000000	0.982199
1524.000000	0.982176
1522.000000	0.982112
1520.000000	0.981998
1518.000000	0.982246
1516.000000	0.982300
1514.000000	0.982295
1512.000000	0.982314
1510.000000	0.982448
1508.000000	0.982349
1506.000000	0.982000
1504.000000	0.982454
1502.000000	0.983171
1500.000000	0.983516
1498.000000	0.983575
1496.000000	0.983068
1494.000000	0.982386
1492.000000	0.981851
1490.000000	0.981587
1488.000000	0.981703
1486.000000	0.981980
1484.000000	0.982234
1482.000000	0.982402
1480.000000	0.982589
1478.000000	0.982655
1476.000000	0.982534
1474.000000	0.982347
1472.000000	0.982140
1470.000000	0.982272
1468.000000	0.982517
1466.000000	0.982482
1464.000000	0.982332
1462.000000	0.982410
1460.000000	0.982523
1458.000000	0.982432
1456.000000	0.982246
1454.000000	0.982440
1452.000000	0.982499
1450.000000	0.982186
1448.000000	0.981922
1446.000000	0.981922
1444.000000	0.982040
1442.000000	0.982090
1440.000000	0.982163
1438.000000	0.982099
1436.000000	0.981838
1434.000000	0.981966
1432.000000	0.982093
1430.000000	0.981934
1428.000000	0.981851
1426.000000	0.981782
1424.000000	0.981686
1422.000000	0.981777
1420.000000	0.981637
1418.000000	0.981416
1416.000000	0.981558
1414.000000	0.981715
1412.000000	0.981775
1410.000000	0.981804
1408.000000	0.981863
1406.000000	0.981787
1404.000000	0.981467
1402.000000	0.981237
1400.000000	0.981035
1398.000000	0.980907
1396.000000	0.980955
1394.000000	0.980850
1392.000000	0.980789
1390.000000	0.980878
1388.000000	0.980800
1386.000000	0.980669
1384.000000	0.980610
1382.000000	0.980535
1380.000000	0.980479
1378.000000	0.980409
1376.000000	0.980500
1374.000000	0.980511
1372.000000	0.980351
1370.000000	0.980142
1368.000000	0.979935
1366.000000	0.979876
1364.000000	0.979886
1362.000000	0.979737
1360.000000	0.979582
1358.000000	0.979523
1356.000000	0.979512
1354.000000	0.979453
1352.000000	0.979365
1350.000000	0.979227
1348.000000	0.979150
1346.000000	0.979259
1344.000000	0.979230
1342.000000	0.979063
1340.000000	0.978944
1338.000000	0.978819
1336.000000	0.978688
1334.000000	0.978649
1332.000000	0.978646
1330.000000	0.978647
1328.000000	0.978625
1326.000000	0.978539
1324.000000	0.978462
1322.000000	0.978324
1320.000000	0.978103
1318.000000	0.978083
1316.000000	0.978096
1314.000000	0.978083
1312.000000	0.978002
1310.000000	0.977895
1308.000000	0.977822
1306.000000	0.977673
1304.000000	0.977561
1302.000000	0.977550
1300.000000	0.977559
1298.000000	0.977581
1296.000000	0.977481
1294.000000	0.977468
1292.000000	0.977428
1290.000000	0.977317
1288.000000	0.977247
1286.000000	0.977174
1284.000000	0.977165
1282.000000	0.977175
1280.000000	0.977166
1278.000000	0.977214
1276.000000	0.977271
1274.000000	0.977366
1272.000000	0.977491
1270.000000	0.977817
1268.000000	0.978536
1266.000000	0.979641
1264.000000	0.980798
1262.000000	0.981414
1260.000000	0.981343
1258.000000	0.980707
1256.000000	0.979712
1254.000000	0.978855
1252.000000	0.978308
1250.000000	0.977906
1248.000000	0.977718
1246.000000	0.977657
1244.000000	0.977650
1242.000000	0.977731
1240.000000	0.977789
1238.000000	0.977745
1236.000000	0.977684
1234.000000	0.977679
1232.000000	0.977800
1230.000000	0.977831
1228.000000	0.977744
1226.000000	0.977768
1224.000000	0.978019
1222.000000	0.978129
1220.000000	0.978016
1218.000000	0.977985
1216.000000	0.977981
1214.000000	0.977981
1212.000000	0.978081
1210.000000	0.978169
1208.000000	0.978223
1206.000000	0.978275
1204.000000	0.978375
1202.000000	0.978467
1200.000000	0.978527
1198.000000	0.978468
1196.000000	0.978505
1194.000000	0.978748
1192.000000	0.978856
1190.000000	0.978916
1188.000000	0.979141
1186.000000	0.979310
1184.000000	0.979524
1182.000000	0.979748
1180.000000	0.979769
1178.000000	0.979880
1176.000000	0.980260
1174.000000	0.980528
1172.000000	0.980678
1170.000000	0.980868
1168.000000	0.981231
1166.000000	0.981387
1164.000000	0.981272
1162.000000	0.981298
1160.000000	0.981403
1158.000000	0.981427
1156.000000	0.981672
1154.000000	0.981818
1152.000000	0.981762
1150.000000	0.981861
1148.000000	0.982108
1146.000000	0.982283
1144.000000	0.982266
1142.000000	0.982196
1140.000000	0.982268
1138.000000	0.982333
1136.000000	0.982417
1134.000000	0.982434
1132.000000	0.982337
1130.000000	0.982337
1128.000000	0.982477
1126.000000	0.982523
1124.000000	0.982588
1122.000000	0.982720
1120.000000	0.982911
1118.000000	0.983110
1116.000000	0.983388
1114.000000	0.983560
1112.000000	0.983783
1110.000000	0.984131
1108.000000	0.984276
1106.000000	0.984236
1104.000000	0.984372
1102.000000	0.984645
1100.000000	0.984805
1098.000000	0.984855
1096.000000	0.985092
1094.000000	0.985250
1092.000000	0.985153
1090.000000	0.984944
1088.000000	0.984326
1086.000000	0.983761
1084.000000	0.983609
1082.000000	0.983138
1080.000000	0.982832
1078.000000	0.982121
1076.000000	0.981045
1074.000000	0.980374
1072.000000	0.979741
1070.000000	0.979092
1068.000000	0.978729
1066.000000	0.978428
1064.000000	0.978096
1062.000000	0.977540
1060.000000	0.976570
1058.000000	0.975723
1056.000000	0.974941
1054.000000	0.974358
1052.000000	0.973862
1050.000000	0.972812
1048.000000	0.972009
1046.000000	0.971796
1044.000000	0.971281
1042.000000	0.970544
1040.000000	0.970156
1038.000000	0.969609
1036.000000	0.968746
1034.000000	0.967775
1032.000000	0.967395
1030.000000	0.967221
1028.000000	0.966492
1026.000000	0.965808
1024.000000	0.965714
1022.000000	0.966021
1020.000000	0.965846
1018.000000	0.965220
1016.000000	0.964955
1014.000000	0.964476
1012.000000	0.964232
1010.000000	0.963521
1008.000000	0.962484
1006.000000	0.962413
1004.000000	0.962858
1002.000000	0.962279
1000.000000	0.961979
