PE IR       SUBTECH     SPECTRUM    ASCII       PEDS        4.00        
   -1
TE110A_013_90K.ASC
20/05/14
12:00:58.00
20/05/14
12:00:58.00
Administrator
TE110A.Thursday, May 14 2020, 001.
1000.000000
#HDR
-1
-1
#GR
cm-1
A
1.0
0.0
6000.000000
-2.000000
2501
8
1.270968
1.217711
#DATA
6000.000000	1.252536
5998.000000	1.252832
5996.000000	1.252823
5994.000000	1.252363
5992.000000	1.252010
5990.000000	1.251730
5988.000000	1.251449
5986.000000	1.251637
5984.000000	1.252003
5982.000000	1.252372
5980.000000	1.252204
5978.000000	1.251768
5976.000000	1.251409
5974.000000	1.251579
5972.000000	1.251731
5970.000000	1.251486
5968.000000	1.251160
5966.000000	1.251105
5964.000000	1.251302
5962.000000	1.251389
5960.000000	1.250977
5958.000000	1.250207
5956.000000	1.249880
5954.000000	1.249792
5952.000000	1.249970
5950.000000	1.250336
5948.000000	1.251137
5946.000000	1.251991
5944.000000	1.252153
5942.000000	1.251220
5940.000000	1.250252
5938.000000	1.249728
5936.000000	1.249923
5934.000000	1.250491
5932.000000	1.251060
5930.000000	1.251159
5928.000000	1.250921
5926.000000	1.250670
5924.000000	1.250672
5922.000000	1.250724
5920.000000	1.250738
5918.000000	1.250965
5916.000000	1.251204
5914.000000	1.251435
5912.000000	1.251200
5910.000000	1.250720
5908.000000	1.250463
5906.000000	1.250213
5904.000000	1.250164
5902.000000	1.250036
5900.000000	1.250160
5898.000000	1.250281
5896.000000	1.250068
5894.000000	1.249631
5892.000000	1.249312
5890.000000	1.249573
5888.000000	1.249726
5886.000000	1.249625
5884.000000	1.249335
5882.000000	1.249097
5880.000000	1.249497
5878.000000	1.249732
5876.000000	1.249810
5874.000000	1.249755
5872.000000	1.249742
5870.000000	1.249636
5868.000000	1.249424
5866.000000	1.249014
5864.000000	1.248707
5862.000000	1.248634
5860.000000	1.248813
5858.000000	1.248691
5856.000000	1.248066
5854.000000	1.247881
5852.000000	1.248217
5850.000000	1.248562
5848.000000	1.248527
5846.000000	1.248367
5844.000000	1.248560
5842.000000	1.248663
5840.000000	1.248878
5838.000000	1.249190
5836.000000	1.249581
5834.000000	1.249784
5832.000000	1.249735
5830.000000	1.249202
5828.000000	1.248635
5826.000000	1.248711
5824.000000	1.249294
5822.000000	1.249508
5820.000000	1.248786
5818.000000	1.248204
5816.000000	1.248425
5814.000000	1.248759
5812.000000	1.249019
5810.000000	1.249175
5808.000000	1.249228
5806.000000	1.248983
5804.000000	1.248563
5802.000000	1.248200
5800.000000	1.247783
5798.000000	1.247583
5796.000000	1.247799
5794.000000	1.248206
5792.000000	1.247977
5790.000000	1.247591
5788.000000	1.247801
5786.000000	1.248175
5784.000000	1.248170
5782.000000	1.248007
5780.000000	1.247898
5778.000000	1.248112
5776.000000	1.248239
5774.000000	1.248016
5772.000000	1.247945
5770.000000	1.247838
5768.000000	1.247825
5766.000000	1.247527
5764.000000	1.247412
5762.000000	1.247334
5760.000000	1.247365
5758.000000	1.247358
5756.000000	1.247528
5754.000000	1.247610
5752.000000	1.247535
5750.000000	1.247367
5748.000000	1.247250
5746.000000	1.247093
5744.000000	1.247274
5742.000000	1.247280
5740.000000	1.247159
5738.000000	1.247150
5736.000000	1.247340
5734.000000	1.247672
5732.000000	1.247393
5730.000000	1.246974
5728.000000	1.247092
5726.000000	1.247563
5724.000000	1.247973
5722.000000	1.248069
5720.000000	1.247891
5718.000000	1.247659
5716.000000	1.247121
5714.000000	1.246673
5712.000000	1.246916
5710.000000	1.247473
5708.000000	1.247755
5706.000000	1.247882
5704.000000	1.247766
5702.000000	1.247610
5700.000000	1.247230
5698.000000	1.246899
5696.000000	1.246954
5694.000000	1.246985
5692.000000	1.246923
5690.000000	1.246638
5688.000000	1.246537
5686.000000	1.246566
5684.000000	1.246546
5682.000000	1.246226
5680.000000	1.246040
5678.000000	1.245976
5676.000000	1.246108
5674.000000	1.246222
5672.000000	1.246295
5670.000000	1.246351
5668.000000	1.246052
5666.000000	1.246047
5664.000000	1.246123
5662.000000	1.246235
5660.000000	1.246354
5658.000000	1.246258
5656.000000	1.246297
5654.000000	1.246150
5652.000000	1.245750
5650.000000	1.245425
5648.000000	1.245244
5646.000000	1.245421
5644.000000	1.245485
5642.000000	1.245606
5640.000000	1.245928
5638.000000	1.246313
5636.000000	1.246139
5634.000000	1.245974
5632.000000	1.245995
5630.000000	1.246105
5628.000000	1.245872
5626.000000	1.245585
5624.000000	1.245489
5622.000000	1.245496
5620.000000	1.245520
5618.000000	1.245733
5616.000000	1.245970
5614.000000	1.245707
5612.000000	1.245221
5610.000000	1.245001
5608.000000	1.245091
5606.000000	1.245164
5604.000000	1.245196
5602.000000	1.245418
5600.000000	1.245685
5598.000000	1.245712
5596.000000	1.245534
5594.000000	1.245147
5592.000000	1.244877
5590.000000	1.244714
5588.000000	1.245101
5586.000000	1.245311
5584.000000	1.245259
5582.000000	1.244748
5580.000000	1.244467
5578.000000	1.244624
5576.000000	1.244759
5574.000000	1.244835
5572.000000	1.244635
5570.000000	1.244525
5568.000000	1.244306
5566.000000	1.244112
5564.000000	1.244034
5562.000000	1.244018
5560.000000	1.244118
5558.000000	1.244471
5556.000000	1.244710
5554.000000	1.244665
5552.000000	1.244305
5550.000000	1.244122
5548.000000	1.244225
5546.000000	1.244297
5544.000000	1.244172
5542.000000	1.244078
5540.000000	1.244179
5538.000000	1.244401
5536.000000	1.244412
5534.000000	1.244488
5532.000000	1.244520
5530.000000	1.244625
5528.000000	1.244491
5526.000000	1.244261
5524.000000	1.243953
5522.000000	1.243744
5520.000000	1.243712
5518.000000	1.243748
5516.000000	1.243763
5514.000000	1.243826
5512.000000	1.243961
5510.000000	1.244079
5508.000000	1.244008
5506.000000	1.243773
5504.000000	1.243306
5502.000000	1.243008
5500.000000	1.243119
5498.000000	1.243475
5496.000000	1.243602
5494.000000	1.243474
5492.000000	1.243342
5490.000000	1.243113
5488.000000	1.243065
5486.000000	1.243353
5484.000000	1.243737
5482.000000	1.243789
5480.000000	1.243455
5478.000000	1.243390
5476.000000	1.243550
5474.000000	1.243348
5472.000000	1.242960
5470.000000	1.242573
5468.000000	1.242531
5466.000000	1.242393
5464.000000	1.242373
5462.000000	1.242639
5460.000000	1.242818
5458.000000	1.242744
5456.000000	1.242645
5454.000000	1.242638
5452.000000	1.242561
5450.000000	1.242399
5448.000000	1.242668
5446.000000	1.243104
5444.000000	1.243145
5442.000000	1.243068
5440.000000	1.242874
5438.000000	1.242705
5436.000000	1.242624
5434.000000	1.242635
5432.000000	1.242379
5430.000000	1.241918
5428.000000	1.241986
5426.000000	1.242369
5424.000000	1.242460
5422.000000	1.242536
5420.000000	1.242535
5418.000000	1.242202
5416.000000	1.241726
5414.000000	1.241768
5412.000000	1.242277
5410.000000	1.242779
5408.000000	1.242860
5406.000000	1.242570
5404.000000	1.242106
5402.000000	1.241942
5400.000000	1.241942
5398.000000	1.241498
5396.000000	1.241277
5394.000000	1.241779
5392.000000	1.242563
5390.000000	1.242630
5388.000000	1.241854
5386.000000	1.241484
5384.000000	1.241629
5382.000000	1.241818
5380.000000	1.241552
5378.000000	1.241337
5376.000000	1.241667
5374.000000	1.242086
5372.000000	1.242032
5370.000000	1.241698
5368.000000	1.241595
5366.000000	1.241666
5364.000000	1.241707
5362.000000	1.241745
5360.000000	1.241713
5358.000000	1.241535
5356.000000	1.241135
5354.000000	1.241149
5352.000000	1.241491
5350.000000	1.241691
5348.000000	1.241396
5346.000000	1.241222
5344.000000	1.241482
5342.000000	1.241478
5340.000000	1.241086
5338.000000	1.240906
5336.000000	1.241049
5334.000000	1.241061
5332.000000	1.240915
5330.000000	1.240952
5328.000000	1.241224
5326.000000	1.241443
5324.000000	1.241537
5322.000000	1.241410
5320.000000	1.241158
5318.000000	1.240928
5316.000000	1.241084
5314.000000	1.241663
5312.000000	1.241910
5310.000000	1.241474
5308.000000	1.241019
5306.000000	1.241006
5304.000000	1.241212
5302.000000	1.241234
5300.000000	1.241287
5298.000000	1.241288
5296.000000	1.241292
5294.000000	1.241373
5292.000000	1.241481
5290.000000	1.241411
5288.000000	1.241067
5286.000000	1.240749
5284.000000	1.240640
5282.000000	1.240812
5280.000000	1.241046
5278.000000	1.241208
5276.000000	1.241227
5274.000000	1.241122
5272.000000	1.240910
5270.000000	1.240722
5268.000000	1.240507
5266.000000	1.240303
5264.000000	1.240332
5262.000000	1.240790
5260.000000	1.241163
5258.000000	1.240980
5256.000000	1.240643
5254.000000	1.240577
5252.000000	1.240395
5250.000000	1.240060
5248.000000	1.240090
5246.000000	1.240474
5244.000000	1.240793
5242.000000	1.240879
5240.000000	1.241013
5238.000000	1.241021
5236.000000	1.240758
5234.000000	1.240448
5232.000000	1.240361
5230.000000	1.240655
5228.000000	1.240656
5226.000000	1.240515
5224.000000	1.240554
5222.000000	1.240875
5220.000000	1.240975
5218.000000	1.240886
5216.000000	1.240935
5214.000000	1.241025
5212.000000	1.240674
5210.000000	1.240068
5208.000000	1.239893
5206.000000	1.240521
5204.000000	1.241048
5202.000000	1.240741
5200.000000	1.240184
5198.000000	1.240115
5196.000000	1.240434
5194.000000	1.240423
5192.000000	1.240175
5190.000000	1.240134
5188.000000	1.240226
5186.000000	1.240347
5184.000000	1.240318
5182.000000	1.240235
5180.000000	1.240231
5178.000000	1.240381
5176.000000	1.240600
5174.000000	1.240563
5172.000000	1.240364
5170.000000	1.240290
5168.000000	1.240187
5166.000000	1.240086
5164.000000	1.240132
5162.000000	1.240375
5160.000000	1.240397
5158.000000	1.240132
5156.000000	1.239858
5154.000000	1.239877
5152.000000	1.240129
5150.000000	1.240250
5148.000000	1.240199
5146.000000	1.239990
5144.000000	1.239860
5142.000000	1.239904
5140.000000	1.240182
5138.000000	1.240334
5136.000000	1.240178
5134.000000	1.240112
5132.000000	1.240314
5130.000000	1.240483
5128.000000	1.240373
5126.000000	1.240208
5124.000000	1.240099
5122.000000	1.240119
5120.000000	1.240199
5118.000000	1.240293
5116.000000	1.240335
5114.000000	1.240354
5112.000000	1.240322
5110.000000	1.240213
5108.000000	1.240108
5106.000000	1.240119
5104.000000	1.240185
5102.000000	1.240201
5100.000000	1.240208
5098.000000	1.240165
5096.000000	1.240107
5094.000000	1.239935
5092.000000	1.239840
5090.000000	1.239776
5088.000000	1.239768
5086.000000	1.239829
5084.000000	1.239882
5082.000000	1.240106
5080.000000	1.240278
5078.000000	1.240147
5076.000000	1.239885
5074.000000	1.239987
5072.000000	1.240312
5070.000000	1.240281
5068.000000	1.240115
5066.000000	1.240074
5064.000000	1.240080
5062.000000	1.240198
5060.000000	1.240427
5058.000000	1.240453
5056.000000	1.240278
5054.000000	1.240129
5052.000000	1.240036
5050.000000	1.239964
5048.000000	1.239894
5046.000000	1.239936
5044.000000	1.240029
5042.000000	1.240004
5040.000000	1.239800
5038.000000	1.239627
5036.000000	1.239764
5034.000000	1.239990
5032.000000	1.240146
5030.000000	1.240165
5028.000000	1.240112
5026.000000	1.240150
5024.000000	1.240288
5022.000000	1.240399
5020.000000	1.240380
5018.000000	1.240157
5016.000000	1.239937
5014.000000	1.239845
5012.000000	1.239872
5010.000000	1.239870
5008.000000	1.239850
5006.000000	1.239791
5004.000000	1.239621
5002.000000	1.239579
5000.000000	1.239792
4998.000000	1.239973
4996.000000	1.239965
4994.000000	1.240060
4992.000000	1.240211
4990.000000	1.240129
4988.000000	1.239870
4986.000000	1.239768
4984.000000	1.239745
4982.000000	1.239825
4980.000000	1.239933
4978.000000	1.240021
4976.000000	1.239955
4974.000000	1.239773
4972.000000	1.239759
4970.000000	1.239942
4968.000000	1.240143
4966.000000	1.240228
4964.000000	1.240216
4962.000000	1.240085
4960.000000	1.239960
4958.000000	1.239899
4956.000000	1.239769
4954.000000	1.239663
4952.000000	1.239696
4950.000000	1.239829
4948.000000	1.240028
4946.000000	1.240114
4944.000000	1.239920
4942.000000	1.239789
4940.000000	1.239901
4938.000000	1.239880
4936.000000	1.239779
4934.000000	1.239917
4932.000000	1.240049
4930.000000	1.240013
4928.000000	1.240077
4926.000000	1.240207
4924.000000	1.240123
4922.000000	1.239855
4920.000000	1.239714
4918.000000	1.239601
4916.000000	1.239545
4914.000000	1.239592
4912.000000	1.239580
4910.000000	1.239361
4908.000000	1.239265
4906.000000	1.239510
4904.000000	1.239761
4902.000000	1.239816
4900.000000	1.239781
4898.000000	1.239783
4896.000000	1.239841
4894.000000	1.239939
4892.000000	1.240022
4890.000000	1.240058
4888.000000	1.239938
4886.000000	1.239818
4884.000000	1.239714
4882.000000	1.239559
4880.000000	1.239433
4878.000000	1.239559
4876.000000	1.239817
4874.000000	1.239921
4872.000000	1.239838
4870.000000	1.239733
4868.000000	1.239822
4866.000000	1.240078
4864.000000	1.240142
4862.000000	1.239926
4860.000000	1.239735
4858.000000	1.239686
4856.000000	1.239712
4854.000000	1.239722
4852.000000	1.239677
4850.000000	1.239690
4848.000000	1.239820
4846.000000	1.239911
4844.000000	1.239805
4842.000000	1.239754
4840.000000	1.239739
4838.000000	1.239802
4836.000000	1.239861
4834.000000	1.239903
4832.000000	1.239758
4830.000000	1.239566
4828.000000	1.239486
4826.000000	1.239588
4824.000000	1.239565
4822.000000	1.239406
4820.000000	1.239425
4818.000000	1.239699
4816.000000	1.239835
4814.000000	1.239747
4812.000000	1.239751
4810.000000	1.239815
4808.000000	1.239781
4806.000000	1.239718
4804.000000	1.239685
4802.000000	1.239624
4800.000000	1.239703
4798.000000	1.239856
4796.000000	1.239882
4794.000000	1.239803
4792.000000	1.239771
4790.000000	1.239782
4788.000000	1.239825
4786.000000	1.239780
4784.000000	1.239650
4782.000000	1.239636
4780.000000	1.239708
4778.000000	1.239647
4776.000000	1.239503
4774.000000	1.239563
4772.000000	1.239703
4770.000000	1.239813
4768.000000	1.239837
4766.000000	1.239909
4764.000000	1.240011
4762.000000	1.240066
4760.000000	1.239930
4758.000000	1.239827
4756.000000	1.239892
4754.000000	1.239980
4752.000000	1.239938
4750.000000	1.239825
4748.000000	1.239770
4746.000000	1.239819
4744.000000	1.239911
4742.000000	1.239923
4740.000000	1.239841
4738.000000	1.239761
4736.000000	1.239710
4734.000000	1.239615
4732.000000	1.239606
4730.000000	1.239697
4728.000000	1.239689
4726.000000	1.239624
4724.000000	1.239699
4722.000000	1.239691
4720.000000	1.239535
4718.000000	1.239431
4716.000000	1.239412
4714.000000	1.239466
4712.000000	1.239548
4710.000000	1.239519
4708.000000	1.239524
4706.000000	1.239700
4704.000000	1.239795
4702.000000	1.239738
4700.000000	1.239726
4698.000000	1.239673
4696.000000	1.239520
4694.000000	1.239420
4692.000000	1.239334
4690.000000	1.239234
4688.000000	1.239332
4686.000000	1.239630
4684.000000	1.239677
4682.000000	1.239406
4680.000000	1.239185
4678.000000	1.239232
4676.000000	1.239458
4674.000000	1.239691
4672.000000	1.239765
4670.000000	1.239633
4668.000000	1.239491
4666.000000	1.239509
4664.000000	1.239602
4662.000000	1.239628
4660.000000	1.239672
4658.000000	1.239868
4656.000000	1.239905
4654.000000	1.239659
4652.000000	1.239438
4650.000000	1.239479
4648.000000	1.239579
4646.000000	1.239637
4644.000000	1.239566
4642.000000	1.239412
4640.000000	1.239359
4638.000000	1.239418
4636.000000	1.239498
4634.000000	1.239571
4632.000000	1.239542
4630.000000	1.239453
4628.000000	1.239444
4626.000000	1.239448
4624.000000	1.239461
4622.000000	1.239540
4620.000000	1.239571
4618.000000	1.239571
4616.000000	1.239507
4614.000000	1.239287
4612.000000	1.239158
4610.000000	1.239210
4608.000000	1.239191
4606.000000	1.239142
4604.000000	1.239213
4602.000000	1.239290
4600.000000	1.239332
4598.000000	1.239400
4596.000000	1.239410
4594.000000	1.239366
4592.000000	1.239314
4590.000000	1.239328
4588.000000	1.239344
4586.000000	1.239281
4584.000000	1.239186
4582.000000	1.239265
4580.000000	1.239377
4578.000000	1.239311
4576.000000	1.239254
4574.000000	1.239328
4572.000000	1.239218
4570.000000	1.239030
4568.000000	1.239149
4566.000000	1.239400
4564.000000	1.239497
4562.000000	1.239470
4560.000000	1.239361
4558.000000	1.239146
4556.000000	1.238993
4554.000000	1.238969
4552.000000	1.239076
4550.000000	1.239221
4548.000000	1.239276
4546.000000	1.239251
4544.000000	1.239225
4542.000000	1.239168
4540.000000	1.239094
4538.000000	1.239105
4536.000000	1.239155
4534.000000	1.239095
4532.000000	1.238919
4530.000000	1.239014
4528.000000	1.239272
4526.000000	1.239307
4524.000000	1.239190
4522.000000	1.239118
4520.000000	1.239052
4518.000000	1.239010
4516.000000	1.239008
4514.000000	1.239018
4512.000000	1.239006
4510.000000	1.238964
4508.000000	1.239005
4506.000000	1.239059
4504.000000	1.239004
4502.000000	1.238982
4500.000000	1.239061
4498.000000	1.239088
4496.000000	1.239028
4494.000000	1.239044
4492.000000	1.239091
4490.000000	1.239065
4488.000000	1.239049
4486.000000	1.239068
4484.000000	1.239133
4482.000000	1.239237
4480.000000	1.239294
4478.000000	1.239356
4476.000000	1.239422
4474.000000	1.239387
4472.000000	1.239364
4470.000000	1.239424
4468.000000	1.239336
4466.000000	1.239158
4464.000000	1.239156
4462.000000	1.239177
4460.000000	1.239091
4458.000000	1.239043
4456.000000	1.239081
4454.000000	1.239149
4452.000000	1.239276
4450.000000	1.239310
4448.000000	1.239237
4446.000000	1.239220
4444.000000	1.239217
4442.000000	1.239146
4440.000000	1.239056
4438.000000	1.239023
4436.000000	1.239032
4434.000000	1.238987
4432.000000	1.238857
4430.000000	1.238892
4428.000000	1.239033
4426.000000	1.238982
4424.000000	1.238916
4422.000000	1.238991
4420.000000	1.238899
4418.000000	1.238694
4416.000000	1.238695
4414.000000	1.238807
4412.000000	1.238840
4410.000000	1.238889
4408.000000	1.238968
4406.000000	1.238939
4404.000000	1.238867
4402.000000	1.238761
4400.000000	1.238520
4398.000000	1.238341
4396.000000	1.238481
4394.000000	1.238639
4392.000000	1.238623
4390.000000	1.238630
4388.000000	1.238724
4386.000000	1.238830
4384.000000	1.238979
4382.000000	1.239015
4380.000000	1.238818
4378.000000	1.238705
4376.000000	1.238793
4374.000000	1.238866
4372.000000	1.238876
4370.000000	1.238915
4368.000000	1.238934
4366.000000	1.238915
4364.000000	1.238856
4362.000000	1.238895
4360.000000	1.238965
4358.000000	1.238860
4356.000000	1.238606
4354.000000	1.238494
4352.000000	1.238650
4350.000000	1.238845
4348.000000	1.238818
4346.000000	1.238692
4344.000000	1.238637
4342.000000	1.238592
4340.000000	1.238562
4338.000000	1.238537
4336.000000	1.238512
4334.000000	1.238553
4332.000000	1.238555
4330.000000	1.238441
4328.000000	1.238411
4326.000000	1.238539
4324.000000	1.238566
4322.000000	1.238437
4320.000000	1.238297
4318.000000	1.238267
4316.000000	1.238324
4314.000000	1.238405
4312.000000	1.238419
4310.000000	1.238389
4308.000000	1.238285
4306.000000	1.238162
4304.000000	1.238089
4302.000000	1.238091
4300.000000	1.238177
4298.000000	1.238258
4296.000000	1.238255
4294.000000	1.238302
4292.000000	1.238345
4290.000000	1.238284
4288.000000	1.238258
4286.000000	1.238324
4284.000000	1.238349
4282.000000	1.238314
4280.000000	1.238234
4278.000000	1.238163
4276.000000	1.238219
4274.000000	1.238326
4272.000000	1.238330
4270.000000	1.238227
4268.000000	1.238047
4266.000000	1.237980
4264.000000	1.238069
4262.000000	1.238017
4260.000000	1.237975
4258.000000	1.238096
4256.000000	1.238085
4254.000000	1.237971
4252.000000	1.237935
4250.000000	1.237834
4248.000000	1.237660
4246.000000	1.237588
4244.000000	1.237683
4242.000000	1.237815
4240.000000	1.237845
4238.000000	1.237850
4236.000000	1.237842
4234.000000	1.237745
4232.000000	1.237630
4230.000000	1.237618
4228.000000	1.237673
4226.000000	1.237719
4224.000000	1.237722
4222.000000	1.237744
4220.000000	1.237743
4218.000000	1.237692
4216.000000	1.237605
4214.000000	1.237467
4212.000000	1.237283
4210.000000	1.237237
4208.000000	1.237297
4206.000000	1.237289
4204.000000	1.237304
4202.000000	1.237376
4200.000000	1.237331
4198.000000	1.237327
4196.000000	1.237397
4194.000000	1.237327
4192.000000	1.237144
4190.000000	1.237068
4188.000000	1.237104
4186.000000	1.237235
4184.000000	1.237443
4182.000000	1.237469
4180.000000	1.237222
4178.000000	1.237077
4176.000000	1.237089
4174.000000	1.237097
4172.000000	1.237093
4170.000000	1.237104
4168.000000	1.237103
4166.000000	1.237112
4164.000000	1.237123
4162.000000	1.237118
4160.000000	1.237140
4158.000000	1.237146
4156.000000	1.236982
4154.000000	1.236790
4152.000000	1.236709
4150.000000	1.236765
4148.000000	1.236958
4146.000000	1.237068
4144.000000	1.236923
4142.000000	1.236720
4140.000000	1.236516
4138.000000	1.236375
4136.000000	1.236400
4134.000000	1.236432
4132.000000	1.236385
4130.000000	1.236408
4128.000000	1.236416
4126.000000	1.236346
4124.000000	1.236351
4122.000000	1.236409
4120.000000	1.236295
4118.000000	1.236206
4116.000000	1.236226
4114.000000	1.236130
4112.000000	1.235951
4110.000000	1.235859
4108.000000	1.235880
4106.000000	1.235969
4104.000000	1.235953
4102.000000	1.235851
4100.000000	1.235808
4098.000000	1.235853
4096.000000	1.235824
4094.000000	1.235760
4092.000000	1.235777
4090.000000	1.235791
4088.000000	1.235754
4086.000000	1.235769
4084.000000	1.235828
4082.000000	1.235792
4080.000000	1.235644
4078.000000	1.235607
4076.000000	1.235608
4074.000000	1.235589
4072.000000	1.235651
4070.000000	1.235644
4068.000000	1.235542
4066.000000	1.235467
4064.000000	1.235361
4062.000000	1.235377
4060.000000	1.235466
4058.000000	1.235413
4056.000000	1.235286
4054.000000	1.235195
4052.000000	1.235144
4050.000000	1.235123
4048.000000	1.235024
4046.000000	1.234913
4044.000000	1.234974
4042.000000	1.235102
4040.000000	1.235081
4038.000000	1.235069
4036.000000	1.235108
4034.000000	1.235075
4032.000000	1.234914
4030.000000	1.234732
4028.000000	1.234680
4026.000000	1.234685
4024.000000	1.234652
4022.000000	1.234629
4020.000000	1.234636
4018.000000	1.234639
4016.000000	1.234523
4014.000000	1.234357
4012.000000	1.234305
4010.000000	1.234334
4008.000000	1.234301
4006.000000	1.234284
4004.000000	1.234370
4002.000000	1.234487
4000.000000	1.234505
3998.000000	1.234370
3996.000000	1.234154
3994.000000	1.234065
3992.000000	1.234112
3990.000000	1.234110
3988.000000	1.234003
3986.000000	1.233871
3984.000000	1.233756
3982.000000	1.233827
3980.000000	1.233938
3978.000000	1.233822
3976.000000	1.233708
3974.000000	1.233776
3972.000000	1.233773
3970.000000	1.233655
3968.000000	1.233655
3966.000000	1.233689
3964.000000	1.233502
3962.000000	1.233328
3960.000000	1.233385
3958.000000	1.233432
3956.000000	1.233234
3954.000000	1.232938
3952.000000	1.232724
3950.000000	1.232767
3948.000000	1.233028
3946.000000	1.232929
3944.000000	1.232502
3942.000000	1.232674
3940.000000	1.233108
3938.000000	1.232960
3936.000000	1.232392
3934.000000	1.231883
3932.000000	1.232029
3930.000000	1.232636
3928.000000	1.232639
3926.000000	1.232221
3924.000000	1.232247
3922.000000	1.232131
3920.000000	1.231401
3918.000000	1.231310
3916.000000	1.232218
3914.000000	1.232698
3912.000000	1.232409
3910.000000	1.231978
3908.000000	1.230735
3906.000000	1.228902
3904.000000	1.228515
3902.000000	1.229635
3900.000000	1.231096
3898.000000	1.232485
3896.000000	1.232323
3894.000000	1.230319
3892.000000	1.229642
3890.000000	1.230776
3888.000000	1.230001
3886.000000	1.229324
3884.000000	1.230852
3882.000000	1.230986
3880.000000	1.231015
3878.000000	1.231714
3876.000000	1.230649
3874.000000	1.229083
3872.000000	1.227543
3870.000000	1.228031
3868.000000	1.230187
3866.000000	1.229998
3864.000000	1.229862
3862.000000	1.231224
3860.000000	1.231271
3858.000000	1.227470
3856.000000	1.220581
3854.000000	1.220597
3852.000000	1.229669
3850.000000	1.234755
3848.000000	1.232786
3846.000000	1.230141
3844.000000	1.228928
3842.000000	1.227638
3840.000000	1.225325
3838.000000	1.225873
3836.000000	1.229594
3834.000000	1.230874
3832.000000	1.230352
3830.000000	1.230552
3828.000000	1.230334
3826.000000	1.229524
3824.000000	1.227340
3822.000000	1.226153
3820.000000	1.227667
3818.000000	1.227081
3816.000000	1.227621
3814.000000	1.231677
3812.000000	1.231990
3810.000000	1.228414
3808.000000	1.226632
3806.000000	1.228013
3804.000000	1.226890
3802.000000	1.225537
3800.000000	1.229137
3798.000000	1.231048
3796.000000	1.230425
3794.000000	1.230811
3792.000000	1.230701
3790.000000	1.230216
3788.000000	1.229921
3786.000000	1.229776
3784.000000	1.229771
3782.000000	1.229102
3780.000000	1.228678
3778.000000	1.229691
3776.000000	1.230245
3774.000000	1.229256
3772.000000	1.227845
3770.000000	1.227843
3768.000000	1.228844
3766.000000	1.229294
3764.000000	1.229318
3762.000000	1.228301
3760.000000	1.227531
3758.000000	1.228132
3756.000000	1.226744
3754.000000	1.222362
3752.000000	1.220518
3750.000000	1.223992
3748.000000	1.225249
3746.000000	1.221753
3744.000000	1.224604
3742.000000	1.230662
3740.000000	1.228482
3738.000000	1.223860
3736.000000	1.223576
3734.000000	1.225547
3732.000000	1.227523
3730.000000	1.228696
3728.000000	1.227711
3726.000000	1.226880
3724.000000	1.227165
3722.000000	1.227362
3720.000000	1.227745
3718.000000	1.227819
3716.000000	1.226369
3714.000000	1.223654
3712.000000	1.223531
3710.000000	1.226556
3708.000000	1.228639
3706.000000	1.228441
3704.000000	1.226997
3702.000000	1.226570
3700.000000	1.227679
3698.000000	1.227979
3696.000000	1.227172
3694.000000	1.225566
3692.000000	1.222769
3690.000000	1.221344
3688.000000	1.224775
3686.000000	1.228591
3684.000000	1.227862
3682.000000	1.225973
3680.000000	1.224051
3678.000000	1.220530
3676.000000	1.220173
3674.000000	1.223450
3672.000000	1.222962
3670.000000	1.223165
3668.000000	1.226698
3666.000000	1.227351
3664.000000	1.225947
3662.000000	1.225177
3660.000000	1.224176
3658.000000	1.222644
3656.000000	1.223195
3654.000000	1.223545
3652.000000	1.220038
3650.000000	1.218604
3648.000000	1.222527
3646.000000	1.225797
3644.000000	1.225551
3642.000000	1.224528
3640.000000	1.224187
3638.000000	1.223823
3636.000000	1.223216
3634.000000	1.222402
3632.000000	1.219730
3630.000000	1.217711
3628.000000	1.221446
3626.000000	1.225007
3624.000000	1.223580
3622.000000	1.220865
3620.000000	1.220141
3618.000000	1.221856
3616.000000	1.222439
3614.000000	1.221267
3612.000000	1.220612
3610.000000	1.220572
3608.000000	1.221683
3606.000000	1.222826
3604.000000	1.222398
3602.000000	1.221808
3600.000000	1.221987
3598.000000	1.222052
3596.000000	1.221705
3594.000000	1.221799
3592.000000	1.221427
3590.000000	1.219795
3588.000000	1.219607
3586.000000	1.221469
3584.000000	1.222230
3582.000000	1.221633
3580.000000	1.221286
3578.000000	1.221302
3576.000000	1.221346
3574.000000	1.221300
3572.000000	1.220762
3570.000000	1.219491
3568.000000	1.219068
3566.000000	1.220471
3564.000000	1.221477
3562.000000	1.221309
3560.000000	1.221220
3558.000000	1.221303
3556.000000	1.221137
3554.000000	1.220959
3552.000000	1.221139
3550.000000	1.221120
3548.000000	1.220628
3546.000000	1.220711
3544.000000	1.221415
3542.000000	1.221778
3540.000000	1.221660
3538.000000	1.221485
3536.000000	1.221589
3534.000000	1.221795
3532.000000	1.221700
3530.000000	1.221492
3528.000000	1.221498
3526.000000	1.221619
3524.000000	1.221689
3522.000000	1.222005
3520.000000	1.222368
3518.000000	1.222480
3516.000000	1.222527
3514.000000	1.222512
3512.000000	1.222460
3510.000000	1.222659
3508.000000	1.223017
3506.000000	1.222972
3504.000000	1.222793
3502.000000	1.223053
3500.000000	1.223380
3498.000000	1.223553
3496.000000	1.223831
3494.000000	1.224177
3492.000000	1.224393
3490.000000	1.224540
3488.000000	1.224818
3486.000000	1.225098
3484.000000	1.225264
3482.000000	1.225541
3480.000000	1.225923
3478.000000	1.226299
3476.000000	1.226644
3474.000000	1.226896
3472.000000	1.227059
3470.000000	1.227230
3468.000000	1.227496
3466.000000	1.227931
3464.000000	1.228490
3462.000000	1.228996
3460.000000	1.229326
3458.000000	1.229649
3456.000000	1.229995
3454.000000	1.230396
3452.000000	1.230782
3450.000000	1.230999
3448.000000	1.231290
3446.000000	1.231841
3444.000000	1.232296
3442.000000	1.232745
3440.000000	1.233318
3438.000000	1.233829
3436.000000	1.234254
3434.000000	1.234711
3432.000000	1.235207
3430.000000	1.235670
3428.000000	1.236003
3426.000000	1.236267
3424.000000	1.236604
3422.000000	1.236997
3420.000000	1.237451
3418.000000	1.237881
3416.000000	1.238136
3414.000000	1.238398
3412.000000	1.238690
3410.000000	1.238940
3408.000000	1.239233
3406.000000	1.239508
3404.000000	1.239666
3402.000000	1.239788
3400.000000	1.240069
3398.000000	1.240435
3396.000000	1.240701
3394.000000	1.240733
3392.000000	1.240736
3390.000000	1.241022
3388.000000	1.241388
3386.000000	1.241644
3384.000000	1.241838
3382.000000	1.241909
3380.000000	1.241921
3378.000000	1.242135
3376.000000	1.242391
3374.000000	1.242551
3372.000000	1.242609
3370.000000	1.242616
3368.000000	1.242689
3366.000000	1.242784
3364.000000	1.242908
3362.000000	1.243078
3360.000000	1.243214
3358.000000	1.243389
3356.000000	1.243606
3354.000000	1.243752
3352.000000	1.243723
3350.000000	1.243664
3348.000000	1.243744
3346.000000	1.243900
3344.000000	1.244016
3342.000000	1.244003
3340.000000	1.243982
3338.000000	1.244108
3336.000000	1.244293
3334.000000	1.244409
3332.000000	1.244373
3330.000000	1.244399
3328.000000	1.244518
3326.000000	1.244605
3324.000000	1.244779
3322.000000	1.244880
3320.000000	1.244847
3318.000000	1.244915
3316.000000	1.245054
3314.000000	1.245090
3312.000000	1.245106
3310.000000	1.245113
3308.000000	1.245070
3306.000000	1.245098
3304.000000	1.245268
3302.000000	1.245480
3300.000000	1.245572
3298.000000	1.245561
3296.000000	1.245572
3294.000000	1.245631
3292.000000	1.245726
3290.000000	1.245798
3288.000000	1.245789
3286.000000	1.245843
3284.000000	1.245958
3282.000000	1.246082
3280.000000	1.246201
3278.000000	1.246239
3276.000000	1.246167
3274.000000	1.246078
3272.000000	1.246128
3270.000000	1.246262
3268.000000	1.246335
3266.000000	1.246358
3264.000000	1.246395
3262.000000	1.246469
3260.000000	1.246536
3258.000000	1.246558
3256.000000	1.246559
3254.000000	1.246609
3252.000000	1.246713
3250.000000	1.246769
3248.000000	1.246831
3246.000000	1.246893
3244.000000	1.246928
3242.000000	1.246926
3240.000000	1.246947
3238.000000	1.247086
3236.000000	1.247215
3234.000000	1.247276
3232.000000	1.247310
3230.000000	1.247394
3228.000000	1.247573
3226.000000	1.247745
3224.000000	1.247753
3222.000000	1.247738
3220.000000	1.247759
3218.000000	1.247796
3216.000000	1.247784
3214.000000	1.247707
3212.000000	1.247666
3210.000000	1.247801
3208.000000	1.248005
3206.000000	1.247999
3204.000000	1.247835
3202.000000	1.247755
3200.000000	1.247788
3198.000000	1.247812
3196.000000	1.247748
3194.000000	1.247755
3192.000000	1.247877
3190.000000	1.247849
3188.000000	1.247747
3186.000000	1.247798
3184.000000	1.247911
3182.000000	1.247943
3180.000000	1.247879
3178.000000	1.247850
3176.000000	1.247874
3174.000000	1.247897
3172.000000	1.247951
3170.000000	1.247992
3168.000000	1.247955
3166.000000	1.247960
3164.000000	1.248092
3162.000000	1.248147
3160.000000	1.248109
3158.000000	1.248075
3156.000000	1.248072
3154.000000	1.247991
3152.000000	1.247988
3150.000000	1.248144
3148.000000	1.248290
3146.000000	1.248366
3144.000000	1.248423
3142.000000	1.248536
3140.000000	1.248563
3138.000000	1.248513
3136.000000	1.248525
3134.000000	1.248582
3132.000000	1.248713
3130.000000	1.248708
3128.000000	1.248641
3126.000000	1.248724
3124.000000	1.248809
3122.000000	1.248749
3120.000000	1.248618
3118.000000	1.248578
3116.000000	1.248654
3114.000000	1.248748
3112.000000	1.248839
3110.000000	1.248810
3108.000000	1.248661
3106.000000	1.248659
3104.000000	1.248760
3102.000000	1.248727
3100.000000	1.248608
3098.000000	1.248537
3096.000000	1.248576
3094.000000	1.248674
3092.000000	1.248643
3090.000000	1.248493
3088.000000	1.248427
3086.000000	1.248466
3084.000000	1.248432
3082.000000	1.248332
3080.000000	1.248162
3078.000000	1.248089
3076.000000	1.248080
3074.000000	1.247992
3072.000000	1.247886
3070.000000	1.247809
3068.000000	1.247661
3066.000000	1.247650
3064.000000	1.247779
3062.000000	1.247829
3060.000000	1.247776
3058.000000	1.247670
3056.000000	1.247589
3054.000000	1.247440
3052.000000	1.247223
3050.000000	1.247110
3048.000000	1.247152
3046.000000	1.247104
3044.000000	1.246985
3042.000000	1.246884
3040.000000	1.246904
3038.000000	1.247006
3036.000000	1.246899
3034.000000	1.246669
3032.000000	1.246608
3030.000000	1.246615
3028.000000	1.246478
3026.000000	1.246265
3024.000000	1.246172
3022.000000	1.246228
3020.000000	1.246355
3018.000000	1.246560
3016.000000	1.246758
3014.000000	1.246894
3012.000000	1.246998
3010.000000	1.247054
3008.000000	1.246902
3006.000000	1.246606
3004.000000	1.246420
3002.000000	1.246273
3000.000000	1.246174
2998.000000	1.246071
2996.000000	1.245981
2994.000000	1.245924
2992.000000	1.245807
2990.000000	1.245705
2988.000000	1.245670
2986.000000	1.245638
2984.000000	1.245564
2982.000000	1.245564
2980.000000	1.245629
2978.000000	1.245555
2976.000000	1.245359
2974.000000	1.245228
2972.000000	1.245109
2970.000000	1.245044
2968.000000	1.245279
2966.000000	1.245822
2964.000000	1.246632
2962.000000	1.247383
2960.000000	1.247717
2958.000000	1.247629
2956.000000	1.247276
2954.000000	1.246788
2952.000000	1.246313
2950.000000	1.245809
2948.000000	1.245266
2946.000000	1.244756
2944.000000	1.244362
2942.000000	1.243945
2940.000000	1.243602
2938.000000	1.243569
2936.000000	1.243665
2934.000000	1.243719
2932.000000	1.243688
2930.000000	1.243678
2928.000000	1.243986
2926.000000	1.244627
2924.000000	1.245502
2922.000000	1.246460
2920.000000	1.247127
2918.000000	1.247284
2916.000000	1.247145
2914.000000	1.246948
2912.000000	1.246600
2910.000000	1.246146
2908.000000	1.245743
2906.000000	1.245423
2904.000000	1.245267
2902.000000	1.245179
2900.000000	1.245132
2898.000000	1.244986
2896.000000	1.244790
2894.000000	1.244714
2892.000000	1.244594
2890.000000	1.244417
2888.000000	1.244343
2886.000000	1.244269
2884.000000	1.244117
2882.000000	1.243891
2880.000000	1.243684
2878.000000	1.243423
2876.000000	1.243134
2874.000000	1.242945
2872.000000	1.242789
2870.000000	1.242433
2868.000000	1.241986
2866.000000	1.241716
2864.000000	1.241803
2862.000000	1.242352
2860.000000	1.243102
2858.000000	1.243592
2856.000000	1.243901
2854.000000	1.244196
2852.000000	1.244428
2850.000000	1.244602
2848.000000	1.244797
2846.000000	1.244835
2844.000000	1.244582
2842.000000	1.244217
2840.000000	1.243940
2838.000000	1.243775
2836.000000	1.243667
2834.000000	1.243565
2832.000000	1.243434
2830.000000	1.243199
2828.000000	1.243142
2826.000000	1.243241
2824.000000	1.243221
2822.000000	1.243178
2820.000000	1.243108
2818.000000	1.243048
2816.000000	1.242984
2814.000000	1.242856
2812.000000	1.242731
2810.000000	1.242650
2808.000000	1.242639
2806.000000	1.242628
2804.000000	1.242645
2802.000000	1.242724
2800.000000	1.242784
2798.000000	1.242747
2796.000000	1.242587
2794.000000	1.242457
2792.000000	1.242408
2790.000000	1.242392
2788.000000	1.242475
2786.000000	1.242577
2784.000000	1.242582
2782.000000	1.242469
2780.000000	1.242392
2778.000000	1.242399
2776.000000	1.242338
2774.000000	1.242315
2772.000000	1.242347
2770.000000	1.242256
2768.000000	1.242174
2766.000000	1.242064
2764.000000	1.242018
2762.000000	1.242018
2760.000000	1.242038
2758.000000	1.242120
2756.000000	1.242147
2754.000000	1.242132
2752.000000	1.242137
2750.000000	1.242096
2748.000000	1.242084
2746.000000	1.242075
2744.000000	1.242038
2742.000000	1.242089
2740.000000	1.242136
2738.000000	1.242076
2736.000000	1.242090
2734.000000	1.242195
2732.000000	1.242268
2730.000000	1.242301
2728.000000	1.242335
2726.000000	1.242398
2724.000000	1.242421
2722.000000	1.242438
2720.000000	1.242498
2718.000000	1.242533
2716.000000	1.242535
2714.000000	1.242591
2712.000000	1.242731
2710.000000	1.242809
2708.000000	1.242866
2706.000000	1.242918
2704.000000	1.242936
2702.000000	1.242945
2700.000000	1.243070
2698.000000	1.243228
2696.000000	1.243298
2694.000000	1.243329
2692.000000	1.243356
2690.000000	1.243427
2688.000000	1.243611
2686.000000	1.243750
2684.000000	1.243738
2682.000000	1.243747
2680.000000	1.243839
2678.000000	1.243928
2676.000000	1.244008
2674.000000	1.244043
2672.000000	1.244085
2670.000000	1.244210
2668.000000	1.244329
2666.000000	1.244409
2664.000000	1.244470
2662.000000	1.244541
2660.000000	1.244600
2658.000000	1.244643
2656.000000	1.244763
2654.000000	1.244830
2652.000000	1.244849
2650.000000	1.245028
2648.000000	1.245217
2646.000000	1.245216
2644.000000	1.245263
2642.000000	1.245255
2640.000000	1.245203
2638.000000	1.245289
2636.000000	1.245393
2634.000000	1.245479
2632.000000	1.245529
2630.000000	1.245481
2628.000000	1.245495
2626.000000	1.245561
2624.000000	1.245622
2622.000000	1.245645
2620.000000	1.245617
2618.000000	1.245626
2616.000000	1.245697
2614.000000	1.245810
2612.000000	1.245889
2610.000000	1.245937
2608.000000	1.245999
2606.000000	1.245985
2604.000000	1.245965
2602.000000	1.245971
2600.000000	1.246002
2598.000000	1.246090
2596.000000	1.246119
2594.000000	1.246122
2592.000000	1.246182
2590.000000	1.246159
2588.000000	1.246138
2586.000000	1.246202
2584.000000	1.246327
2582.000000	1.246381
2580.000000	1.246332
2578.000000	1.246330
2576.000000	1.246334
2574.000000	1.246304
2572.000000	1.246364
2570.000000	1.246397
2568.000000	1.246445
2566.000000	1.246463
2564.000000	1.246441
2562.000000	1.246402
2560.000000	1.246404
2558.000000	1.246398
2556.000000	1.246357
2554.000000	1.246401
2552.000000	1.246546
2550.000000	1.246561
2548.000000	1.246425
2546.000000	1.246336
2544.000000	1.246389
2542.000000	1.246371
2540.000000	1.246275
2538.000000	1.246254
2536.000000	1.246338
2534.000000	1.246369
2532.000000	1.246355
2530.000000	1.246308
2528.000000	1.246217
2526.000000	1.246241
2524.000000	1.246328
2522.000000	1.246196
2520.000000	1.246136
2518.000000	1.246226
2516.000000	1.246248
2514.000000	1.246177
2512.000000	1.246169
2510.000000	1.246175
2508.000000	1.246101
2506.000000	1.246061
2504.000000	1.246145
2502.000000	1.246183
2500.000000	1.246138
2498.000000	1.246084
2496.000000	1.246055
2494.000000	1.246026
2492.000000	1.246004
2490.000000	1.245969
2488.000000	1.245975
2486.000000	1.245977
2484.000000	1.245945
2482.000000	1.245953
2480.000000	1.245960
2478.000000	1.245906
2476.000000	1.245889
2474.000000	1.245878
2472.000000	1.245805
2470.000000	1.245728
2468.000000	1.245785
2466.000000	1.245888
2464.000000	1.245952
2462.000000	1.245944
2460.000000	1.245853
2458.000000	1.245730
2456.000000	1.245782
2454.000000	1.245816
2452.000000	1.245779
2450.000000	1.245819
2448.000000	1.245837
2446.000000	1.245719
2444.000000	1.245673
2442.000000	1.245670
2440.000000	1.245663
2438.000000	1.245633
2436.000000	1.245539
2434.000000	1.245427
2432.000000	1.245444
2430.000000	1.245518
2428.000000	1.245526
2426.000000	1.245477
2424.000000	1.245449
2422.000000	1.245430
2420.000000	1.245416
2418.000000	1.245314
2416.000000	1.245212
2414.000000	1.245171
2412.000000	1.245134
2410.000000	1.245084
2408.000000	1.244965
2406.000000	1.244909
2404.000000	1.244926
2402.000000	1.244879
2400.000000	1.244798
2398.000000	1.244714
2396.000000	1.244645
2394.000000	1.244601
2392.000000	1.244529
2390.000000	1.244455
2388.000000	1.244298
2386.000000	1.244108
2384.000000	1.244080
2382.000000	1.244176
2380.000000	1.244665
2378.000000	1.245467
2376.000000	1.246030
2374.000000	1.246251
2372.000000	1.246242
2370.000000	1.246214
2368.000000	1.246305
2366.000000	1.246339
2364.000000	1.246473
2362.000000	1.246836
2360.000000	1.247267
2358.000000	1.247805
2356.000000	1.248420
2354.000000	1.248835
2352.000000	1.249123
2350.000000	1.249009
2348.000000	1.248416
2346.000000	1.248165
2344.000000	1.248523
2342.000000	1.249103
2340.000000	1.249614
2338.000000	1.249757
2336.000000	1.249570
2334.000000	1.249260
2332.000000	1.249008
2330.000000	1.248802
2328.000000	1.248687
2326.000000	1.248632
2324.000000	1.248485
2322.000000	1.248337
2320.000000	1.248232
2318.000000	1.248062
2316.000000	1.247897
2314.000000	1.247778
2312.000000	1.247682
2310.000000	1.247672
2308.000000	1.247697
2306.000000	1.247557
2304.000000	1.247440
2302.000000	1.247394
2300.000000	1.247337
2298.000000	1.247261
2296.000000	1.247205
2294.000000	1.247134
2292.000000	1.247115
2290.000000	1.247115
2288.000000	1.246990
2286.000000	1.246846
2284.000000	1.246996
2282.000000	1.247310
2280.000000	1.247373
2278.000000	1.247216
2276.000000	1.247135
2274.000000	1.247065
2272.000000	1.247021
2270.000000	1.246972
2268.000000	1.246893
2266.000000	1.246810
2264.000000	1.246806
2262.000000	1.246733
2260.000000	1.246581
2258.000000	1.246449
2256.000000	1.246386
2254.000000	1.246381
2252.000000	1.246324
2250.000000	1.246305
2248.000000	1.246342
2246.000000	1.246272
2244.000000	1.246193
2242.000000	1.246097
2240.000000	1.246006
2238.000000	1.245936
2236.000000	1.245831
2234.000000	1.245738
2232.000000	1.245711
2230.000000	1.245631
2228.000000	1.245528
2226.000000	1.245505
2224.000000	1.245542
2222.000000	1.245427
2220.000000	1.245265
2218.000000	1.245182
2216.000000	1.245175
2214.000000	1.245050
2212.000000	1.244914
2210.000000	1.244821
2208.000000	1.244798
2206.000000	1.244758
2204.000000	1.244691
2202.000000	1.244590
2200.000000	1.244586
2198.000000	1.244531
2196.000000	1.244428
2194.000000	1.244349
2192.000000	1.244305
2190.000000	1.244307
2188.000000	1.244350
2186.000000	1.244252
2184.000000	1.244175
2182.000000	1.244099
2180.000000	1.244077
2178.000000	1.244015
2176.000000	1.243842
2174.000000	1.243688
2172.000000	1.243641
2170.000000	1.243718
2168.000000	1.243732
2166.000000	1.243627
2164.000000	1.243552
2162.000000	1.243509
2160.000000	1.243413
2158.000000	1.243281
2156.000000	1.243161
2154.000000	1.242909
2152.000000	1.242723
2150.000000	1.242847
2148.000000	1.242949
2146.000000	1.242846
2144.000000	1.242788
2142.000000	1.242907
2140.000000	1.243105
2138.000000	1.243084
2136.000000	1.242847
2134.000000	1.242444
2132.000000	1.242306
2130.000000	1.242475
2128.000000	1.242497
2126.000000	1.242398
2124.000000	1.242150
2122.000000	1.241798
2120.000000	1.241859
2118.000000	1.242095
2116.000000	1.242091
2114.000000	1.242152
2112.000000	1.242340
2110.000000	1.242198
2108.000000	1.241873
2106.000000	1.241771
2104.000000	1.241763
2102.000000	1.241778
2100.000000	1.241898
2098.000000	1.242031
2096.000000	1.241915
2094.000000	1.241857
2092.000000	1.241769
2090.000000	1.241478
2088.000000	1.241382
2086.000000	1.241454
2084.000000	1.241559
2082.000000	1.241388
2080.000000	1.241228
2078.000000	1.241107
2076.000000	1.240935
2074.000000	1.240676
2072.000000	1.240940
2070.000000	1.241284
2068.000000	1.241145
2066.000000	1.240859
2064.000000	1.240831
2062.000000	1.240809
2060.000000	1.240757
2058.000000	1.240691
2056.000000	1.240345
2054.000000	1.240167
2052.000000	1.240490
2050.000000	1.240590
2048.000000	1.240405
2046.000000	1.240334
2044.000000	1.240465
2042.000000	1.240595
2040.000000	1.240579
2038.000000	1.240443
2036.000000	1.240276
2034.000000	1.240148
2032.000000	1.240034
2030.000000	1.240068
2028.000000	1.240384
2026.000000	1.240422
2024.000000	1.240284
2022.000000	1.240129
2020.000000	1.239909
2018.000000	1.239746
2016.000000	1.239756
2014.000000	1.239833
2012.000000	1.239965
2010.000000	1.239999
2008.000000	1.239936
2006.000000	1.239914
2004.000000	1.239929
2002.000000	1.239872
2000.000000	1.239897
1998.000000	1.239930
1996.000000	1.239837
1994.000000	1.239536
1992.000000	1.239441
1990.000000	1.239548
1988.000000	1.239605
1986.000000	1.239697
1984.000000	1.239633
1982.000000	1.239460
1980.000000	1.239448
1978.000000	1.239490
1976.000000	1.239481
1974.000000	1.239492
1972.000000	1.239532
1970.000000	1.239421
1968.000000	1.239239
1966.000000	1.239313
1964.000000	1.239362
1962.000000	1.239274
1960.000000	1.239364
1958.000000	1.239649
1956.000000	1.239673
1954.000000	1.239503
1952.000000	1.239537
1950.000000	1.239564
1948.000000	1.239506
1946.000000	1.239109
1944.000000	1.238706
1942.000000	1.238996
1940.000000	1.239459
1938.000000	1.239377
1936.000000	1.239367
1934.000000	1.239406
1932.000000	1.239487
1930.000000	1.239483
1928.000000	1.239485
1926.000000	1.239338
1924.000000	1.239165
1922.000000	1.239242
1920.000000	1.238748
1918.000000	1.238665
1916.000000	1.239565
1914.000000	1.239609
1912.000000	1.239445
1910.000000	1.239369
1908.000000	1.239488
1906.000000	1.239589
1904.000000	1.239734
1902.000000	1.239768
1900.000000	1.239873
1898.000000	1.239798
1896.000000	1.239735
1894.000000	1.239736
1892.000000	1.239385
1890.000000	1.239230
1888.000000	1.239881
1886.000000	1.239903
1884.000000	1.239847
1882.000000	1.239854
1880.000000	1.239855
1878.000000	1.239835
1876.000000	1.239860
1874.000000	1.239726
1872.000000	1.239080
1870.000000	1.238186
1868.000000	1.238990
1866.000000	1.239872
1864.000000	1.240028
1862.000000	1.239890
1860.000000	1.239874
1858.000000	1.239953
1856.000000	1.240060
1854.000000	1.239874
1852.000000	1.239775
1850.000000	1.239482
1848.000000	1.238865
1846.000000	1.237301
1844.000000	1.237854
1842.000000	1.240016
1840.000000	1.239999
1838.000000	1.239607
1836.000000	1.239744
1834.000000	1.239646
1832.000000	1.238709
1830.000000	1.238564
1828.000000	1.239380
1826.000000	1.239132
1824.000000	1.239847
1822.000000	1.240318
1820.000000	1.240089
1818.000000	1.240002
1816.000000	1.240129
1814.000000	1.239826
1812.000000	1.239593
1810.000000	1.239882
1808.000000	1.240143
1806.000000	1.239904
1804.000000	1.239440
1802.000000	1.238926
1800.000000	1.239355
1798.000000	1.239824
1796.000000	1.239276
1794.000000	1.237490
1792.000000	1.238180
1790.000000	1.240210
1788.000000	1.240141
1786.000000	1.239254
1784.000000	1.239562
1782.000000	1.239690
1780.000000	1.239887
1778.000000	1.240046
1776.000000	1.238934
1774.000000	1.236521
1772.000000	1.237408
1770.000000	1.239329
1768.000000	1.239584
1766.000000	1.240487
1764.000000	1.239289
1762.000000	1.238857
1760.000000	1.239976
1758.000000	1.239564
1756.000000	1.239953
1754.000000	1.239232
1752.000000	1.237321
1750.000000	1.238639
1748.000000	1.239997
1746.000000	1.240281
1744.000000	1.239965
1742.000000	1.239100
1740.000000	1.239028
1738.000000	1.239584
1736.000000	1.235422
1734.000000	1.235366
1732.000000	1.240703
1730.000000	1.241524
1728.000000	1.241611
1726.000000	1.241508
1724.000000	1.241356
1722.000000	1.240754
1720.000000	1.237255
1718.000000	1.235140
1716.000000	1.239120
1714.000000	1.241475
1712.000000	1.241887
1710.000000	1.241259
1708.000000	1.240468
1706.000000	1.239891
1704.000000	1.239751
1702.000000	1.234955
1700.000000	1.235620
1698.000000	1.237551
1696.000000	1.237263
1694.000000	1.242518
1692.000000	1.242861
1690.000000	1.241716
1688.000000	1.239835
1686.000000	1.234744
1684.000000	1.237276
1682.000000	1.242932
1680.000000	1.242764
1678.000000	1.241151
1676.000000	1.239416
1674.000000	1.241342
1672.000000	1.240872
1670.000000	1.240087
1668.000000	1.242497
1666.000000	1.242995
1664.000000	1.241323
1662.000000	1.242304
1660.000000	1.243654
1658.000000	1.242814
1656.000000	1.237070
1654.000000	1.231102
1652.000000	1.238768
1650.000000	1.243395
1648.000000	1.239449
1646.000000	1.240592
1644.000000	1.244001
1642.000000	1.244069
1640.000000	1.242993
1638.000000	1.239908
1636.000000	1.238734
1634.000000	1.243435
1632.000000	1.244912
1630.000000	1.243529
1628.000000	1.243085
1626.000000	1.242616
1624.000000	1.241831
1622.000000	1.243334
1620.000000	1.242673
1618.000000	1.239294
1616.000000	1.241621
1614.000000	1.244810
1612.000000	1.244017
1610.000000	1.244026
1608.000000	1.244637
1606.000000	1.245310
1604.000000	1.245352
1602.000000	1.245549
1600.000000	1.245650
1598.000000	1.245527
1596.000000	1.245296
1594.000000	1.245457
1592.000000	1.245525
1590.000000	1.245457
1588.000000	1.245349
1586.000000	1.245348
1584.000000	1.245460
1582.000000	1.245686
1580.000000	1.244641
1578.000000	1.240706
1576.000000	1.241274
1574.000000	1.245718
1572.000000	1.243997
1570.000000	1.242823
1568.000000	1.244565
1566.000000	1.244782
1564.000000	1.243750
1562.000000	1.238602
1560.000000	1.233390
1558.000000	1.239205
1556.000000	1.243445
1554.000000	1.243982
1552.000000	1.245093
1550.000000	1.245235
1548.000000	1.245069
1546.000000	1.243123
1544.000000	1.240739
1542.000000	1.237229
1540.000000	1.237401
1538.000000	1.243805
1536.000000	1.244718
1534.000000	1.242927
1532.000000	1.244806
1530.000000	1.244823
1528.000000	1.243184
1526.000000	1.242441
1524.000000	1.240920
1522.000000	1.239093
1520.000000	1.242086
1518.000000	1.243076
1516.000000	1.243502
1514.000000	1.244114
1512.000000	1.243525
1510.000000	1.241130
1508.000000	1.236377
1506.000000	1.238751
1504.000000	1.244070
1502.000000	1.242715
1500.000000	1.239179
1498.000000	1.236894
1496.000000	1.239900
1494.000000	1.245383
1492.000000	1.246394
1490.000000	1.246221
1488.000000	1.246862
1486.000000	1.247109
1484.000000	1.246671
1482.000000	1.245810
1480.000000	1.245456
1478.000000	1.244160
1476.000000	1.242607
1474.000000	1.240978
1472.000000	1.242570
1470.000000	1.245046
1468.000000	1.244307
1466.000000	1.242801
1464.000000	1.243748
1462.000000	1.244117
1460.000000	1.240488
1458.000000	1.236540
1456.000000	1.240000
1454.000000	1.243753
1452.000000	1.244036
1450.000000	1.245013
1448.000000	1.245743
1446.000000	1.246111
1444.000000	1.245400
1442.000000	1.244986
1440.000000	1.243783
1438.000000	1.241317
1436.000000	1.242649
1434.000000	1.244784
1432.000000	1.243905
1430.000000	1.243840
1428.000000	1.244373
1426.000000	1.244129
1424.000000	1.243636
1422.000000	1.242361
1420.000000	1.240480
1418.000000	1.242690
1416.000000	1.244235
1414.000000	1.244148
1412.000000	1.243841
1410.000000	1.243573
1408.000000	1.242942
1406.000000	1.242734
1404.000000	1.243621
1402.000000	1.244270
1400.000000	1.243872
1398.000000	1.244043
1396.000000	1.243328
1394.000000	1.243702
1392.000000	1.244414
1390.000000	1.243466
1388.000000	1.242441
1386.000000	1.243352
1384.000000	1.244205
1382.000000	1.244451
1380.000000	1.244149
1378.000000	1.243761
1376.000000	1.243116
1374.000000	1.243037
1372.000000	1.243452
1370.000000	1.243389
1368.000000	1.243437
1366.000000	1.243230
1364.000000	1.242539
1362.000000	1.242773
1360.000000	1.243260
1358.000000	1.243306
1356.000000	1.243218
1354.000000	1.243207
1352.000000	1.243182
1350.000000	1.243129
1348.000000	1.243034
1346.000000	1.242873
1344.000000	1.242621
1342.000000	1.242292
1340.000000	1.242221
1338.000000	1.242701
1336.000000	1.243022
1334.000000	1.243071
1332.000000	1.242876
1330.000000	1.242853
1328.000000	1.242734
1326.000000	1.242571
1324.000000	1.242483
1322.000000	1.242434
1320.000000	1.242222
1318.000000	1.242235
1316.000000	1.242228
1314.000000	1.242129
1312.000000	1.242070
1310.000000	1.242013
1308.000000	1.241938
1306.000000	1.241973
1304.000000	1.241985
1302.000000	1.242001
1300.000000	1.241901
1298.000000	1.241776
1296.000000	1.241614
1294.000000	1.241559
1292.000000	1.241533
1290.000000	1.241588
1288.000000	1.241620
1286.000000	1.241659
1284.000000	1.241551
1282.000000	1.241492
1280.000000	1.241605
1278.000000	1.241645
1276.000000	1.241641
1274.000000	1.241891
1272.000000	1.241996
1270.000000	1.242133
1268.000000	1.242808
1266.000000	1.244099
1264.000000	1.245906
1262.000000	1.248446
1260.000000	1.250782
1258.000000	1.251495
1256.000000	1.250541
1254.000000	1.248716
1252.000000	1.246916
1250.000000	1.245826
1248.000000	1.245507
1246.000000	1.245558
1244.000000	1.245470
1242.000000	1.245495
1240.000000	1.245748
1238.000000	1.246263
1236.000000	1.246625
1234.000000	1.246778
1232.000000	1.246950
1230.000000	1.247439
1228.000000	1.247904
1226.000000	1.248081
1224.000000	1.248063
1222.000000	1.248212
1220.000000	1.248586
1218.000000	1.248822
1216.000000	1.248850
1214.000000	1.249241
1212.000000	1.249687
1210.000000	1.250129
1208.000000	1.250526
1206.000000	1.250821
1204.000000	1.251027
1202.000000	1.251293
1200.000000	1.251577
1198.000000	1.251802
1196.000000	1.252130
1194.000000	1.252641
1192.000000	1.252961
1190.000000	1.253193
1188.000000	1.253518
1186.000000	1.253834
1184.000000	1.253845
1182.000000	1.253969
1180.000000	1.255052
1178.000000	1.256207
1176.000000	1.256383
1174.000000	1.256410
1172.000000	1.256466
1170.000000	1.256854
1168.000000	1.257310
1166.000000	1.257763
1164.000000	1.258309
1162.000000	1.258828
1160.000000	1.259183
1158.000000	1.259420
1156.000000	1.259547
1154.000000	1.259865
1152.000000	1.260268
1150.000000	1.260792
1148.000000	1.261164
1146.000000	1.261161
1144.000000	1.261246
1142.000000	1.261721
1140.000000	1.262260
1138.000000	1.262801
1136.000000	1.262938
1134.000000	1.263170
1132.000000	1.263421
1130.000000	1.263591
1128.000000	1.263876
1126.000000	1.264185
1124.000000	1.264336
1122.000000	1.264396
1120.000000	1.264365
1118.000000	1.264872
1116.000000	1.265423
1114.000000	1.265538
1112.000000	1.265941
1110.000000	1.266754
1108.000000	1.267281
1106.000000	1.267829
1104.000000	1.268239
1102.000000	1.268718
1100.000000	1.268861
1098.000000	1.269339
1096.000000	1.270401
1094.000000	1.270668
1092.000000	1.270601
1090.000000	1.270851
1088.000000	1.270968
1086.000000	1.270832
1084.000000	1.270040
1082.000000	1.269524
1080.000000	1.269553
1078.000000	1.269429
1076.000000	1.269233
1074.000000	1.269339
1072.000000	1.269640
1070.000000	1.269503
1068.000000	1.268868
1066.000000	1.268251
1064.000000	1.267751
1062.000000	1.267420
1060.000000	1.266754
1058.000000	1.266030
1056.000000	1.264868
1054.000000	1.263003
1052.000000	1.262287
1050.000000	1.264232
1048.000000	1.266290
1046.000000	1.266260
1044.000000	1.264458
1042.000000	1.262445
1040.000000	1.261520
1038.000000	1.261312
1036.000000	1.260757
1034.000000	1.260547
1032.000000	1.260628
1030.000000	1.259881
1028.000000	1.259021
1026.000000	1.258935
1024.000000	1.259058
1022.000000	1.258643
1020.000000	1.257718
1018.000000	1.256959
1016.000000	1.255829
1014.000000	1.254437
1012.000000	1.252800
1010.000000	1.251406
1008.000000	1.249999
1006.000000	1.248452
1004.000000	1.246482
1002.000000	1.244255
1000.000000	1.243399
