PE IR       SUBTECH     SPECTRUM    ASCII       PEDS        4.00        
   -1
TE110A_020_100K.ASC
20/05/14
12:16:45.00
20/05/14
12:16:45.00
Administrator
TE110A.Thursday, May 14 2020, 003.
1000.000000
#HDR
-1
-1
#GR
cm-1
A
1.0
0.0
6000.000000
-2.000000
2501
8
1.296389
1.243719
#DATA
6000.000000	1.281912
5998.000000	1.281311
5996.000000	1.281045
5994.000000	1.280974
5992.000000	1.281732
5990.000000	1.282260
5988.000000	1.282542
5986.000000	1.282055
5984.000000	1.281555
5982.000000	1.281115
5980.000000	1.281244
5978.000000	1.281234
5976.000000	1.281341
5974.000000	1.281696
5972.000000	1.282412
5970.000000	1.282655
5968.000000	1.281630
5966.000000	1.280537
5964.000000	1.280418
5962.000000	1.280955
5960.000000	1.281235
5958.000000	1.280994
5956.000000	1.280565
5954.000000	1.280941
5952.000000	1.281365
5950.000000	1.281579
5948.000000	1.281410
5946.000000	1.280694
5944.000000	1.280441
5942.000000	1.280441
5940.000000	1.280895
5938.000000	1.281005
5936.000000	1.280751
5934.000000	1.280577
5932.000000	1.280618
5930.000000	1.280864
5928.000000	1.280677
5926.000000	1.280489
5924.000000	1.280436
5922.000000	1.280279
5920.000000	1.280016
5918.000000	1.279642
5916.000000	1.280052
5914.000000	1.280358
5912.000000	1.280616
5910.000000	1.280762
5908.000000	1.280628
5906.000000	1.280503
5904.000000	1.280449
5902.000000	1.279816
5900.000000	1.279162
5898.000000	1.278323
5896.000000	1.278180
5894.000000	1.278694
5892.000000	1.279017
5890.000000	1.279137
5888.000000	1.278940
5886.000000	1.278780
5884.000000	1.278732
5882.000000	1.278914
5880.000000	1.279461
5878.000000	1.279780
5876.000000	1.279612
5874.000000	1.279230
5872.000000	1.278938
5870.000000	1.278859
5868.000000	1.278592
5866.000000	1.278123
5864.000000	1.278119
5862.000000	1.278396
5860.000000	1.278685
5858.000000	1.278274
5856.000000	1.278241
5854.000000	1.278572
5852.000000	1.279145
5850.000000	1.279178
5848.000000	1.278834
5846.000000	1.278893
5844.000000	1.278963
5842.000000	1.278920
5840.000000	1.278842
5838.000000	1.278773
5836.000000	1.279073
5834.000000	1.279063
5832.000000	1.278858
5830.000000	1.278805
5828.000000	1.278773
5826.000000	1.278750
5824.000000	1.278238
5822.000000	1.277897
5820.000000	1.278107
5818.000000	1.278471
5816.000000	1.278426
5814.000000	1.278182
5812.000000	1.277807
5810.000000	1.277726
5808.000000	1.277626
5806.000000	1.277834
5804.000000	1.278238
5802.000000	1.278145
5800.000000	1.277975
5798.000000	1.277600
5796.000000	1.277442
5794.000000	1.277718
5792.000000	1.277562
5790.000000	1.277324
5788.000000	1.277144
5786.000000	1.277088
5784.000000	1.277292
5782.000000	1.277245
5780.000000	1.277137
5778.000000	1.277376
5776.000000	1.277450
5774.000000	1.277704
5772.000000	1.277749
5770.000000	1.277594
5768.000000	1.277436
5766.000000	1.277224
5764.000000	1.277436
5762.000000	1.278002
5760.000000	1.278010
5758.000000	1.277425
5756.000000	1.276742
5754.000000	1.276669
5752.000000	1.276890
5750.000000	1.276971
5748.000000	1.276866
5746.000000	1.276721
5744.000000	1.276572
5742.000000	1.276588
5740.000000	1.276724
5738.000000	1.276879
5736.000000	1.276780
5734.000000	1.276876
5732.000000	1.277222
5730.000000	1.277443
5728.000000	1.277383
5726.000000	1.277079
5724.000000	1.276751
5722.000000	1.276453
5720.000000	1.276303
5718.000000	1.276334
5716.000000	1.276623
5714.000000	1.276534
5712.000000	1.276218
5710.000000	1.276100
5708.000000	1.276205
5706.000000	1.276614
5704.000000	1.276808
5702.000000	1.276747
5700.000000	1.276322
5698.000000	1.275837
5696.000000	1.275710
5694.000000	1.275710
5692.000000	1.275989
5690.000000	1.275882
5688.000000	1.275805
5686.000000	1.275591
5684.000000	1.275201
5682.000000	1.274924
5680.000000	1.275054
5678.000000	1.275482
5676.000000	1.275802
5674.000000	1.275791
5672.000000	1.275503
5670.000000	1.275444
5668.000000	1.275462
5666.000000	1.275499
5664.000000	1.275543
5662.000000	1.275318
5660.000000	1.275299
5658.000000	1.275399
5656.000000	1.275416
5654.000000	1.275337
5652.000000	1.275186
5650.000000	1.275050
5648.000000	1.275277
5646.000000	1.275251
5644.000000	1.274730
5642.000000	1.274241
5640.000000	1.274052
5638.000000	1.274313
5636.000000	1.274776
5634.000000	1.275058
5632.000000	1.275238
5630.000000	1.274917
5628.000000	1.274648
5626.000000	1.274476
5624.000000	1.274736
5622.000000	1.275088
5620.000000	1.275071
5618.000000	1.274718
5616.000000	1.274326
5614.000000	1.274416
5612.000000	1.274646
5610.000000	1.274670
5608.000000	1.274583
5606.000000	1.274586
5604.000000	1.274756
5602.000000	1.274859
5600.000000	1.274932
5598.000000	1.274799
5596.000000	1.274499
5594.000000	1.274125
5592.000000	1.273895
5590.000000	1.273955
5588.000000	1.274147
5586.000000	1.274411
5584.000000	1.274363
5582.000000	1.273964
5580.000000	1.273470
5578.000000	1.273416
5576.000000	1.273703
5574.000000	1.273790
5572.000000	1.273631
5570.000000	1.273165
5568.000000	1.272897
5566.000000	1.272854
5564.000000	1.272904
5562.000000	1.273225
5560.000000	1.273415
5558.000000	1.273394
5556.000000	1.273415
5554.000000	1.273601
5552.000000	1.273371
5550.000000	1.272797
5548.000000	1.272706
5546.000000	1.273477
5544.000000	1.273947
5542.000000	1.273812
5540.000000	1.273552
5538.000000	1.273483
5536.000000	1.273608
5534.000000	1.273634
5532.000000	1.273705
5530.000000	1.273494
5528.000000	1.273077
5526.000000	1.272873
5524.000000	1.273060
5522.000000	1.273405
5520.000000	1.273443
5518.000000	1.272948
5516.000000	1.272686
5514.000000	1.272823
5512.000000	1.272992
5510.000000	1.272944
5508.000000	1.272748
5506.000000	1.272717
5504.000000	1.272755
5502.000000	1.272853
5500.000000	1.272981
5498.000000	1.272812
5496.000000	1.272237
5494.000000	1.271584
5492.000000	1.271318
5490.000000	1.271646
5488.000000	1.271997
5486.000000	1.272134
5484.000000	1.272145
5482.000000	1.272498
5480.000000	1.272255
5478.000000	1.271429
5476.000000	1.270979
5474.000000	1.271567
5472.000000	1.272486
5470.000000	1.272591
5468.000000	1.272030
5466.000000	1.271401
5464.000000	1.271036
5462.000000	1.271081
5460.000000	1.271445
5458.000000	1.271761
5456.000000	1.271838
5454.000000	1.271634
5452.000000	1.271311
5450.000000	1.271065
5448.000000	1.271067
5446.000000	1.271449
5444.000000	1.271589
5442.000000	1.271457
5440.000000	1.271338
5438.000000	1.271454
5436.000000	1.271532
5434.000000	1.271329
5432.000000	1.270955
5430.000000	1.270986
5428.000000	1.271475
5426.000000	1.271843
5424.000000	1.271592
5422.000000	1.271051
5420.000000	1.271146
5418.000000	1.271343
5416.000000	1.271336
5414.000000	1.271160
5412.000000	1.271112
5410.000000	1.271389
5408.000000	1.271602
5406.000000	1.271702
5404.000000	1.271495
5402.000000	1.271270
5400.000000	1.271240
5398.000000	1.270866
5396.000000	1.270469
5394.000000	1.270492
5392.000000	1.271040
5390.000000	1.271395
5388.000000	1.271233
5386.000000	1.270913
5384.000000	1.270634
5382.000000	1.270410
5380.000000	1.270413
5378.000000	1.270546
5376.000000	1.270878
5374.000000	1.271111
5372.000000	1.270981
5370.000000	1.270671
5368.000000	1.270562
5366.000000	1.270477
5364.000000	1.270429
5362.000000	1.270426
5360.000000	1.270565
5358.000000	1.270502
5356.000000	1.270010
5354.000000	1.269710
5352.000000	1.269801
5350.000000	1.270067
5348.000000	1.269918
5346.000000	1.269640
5344.000000	1.269810
5342.000000	1.269904
5340.000000	1.269833
5338.000000	1.270083
5336.000000	1.270595
5334.000000	1.270515
5332.000000	1.269830
5330.000000	1.269532
5328.000000	1.269916
5326.000000	1.270333
5324.000000	1.270672
5322.000000	1.270740
5320.000000	1.270734
5318.000000	1.270401
5316.000000	1.270001
5314.000000	1.269620
5312.000000	1.269420
5310.000000	1.269525
5308.000000	1.269830
5306.000000	1.270144
5304.000000	1.270266
5302.000000	1.270096
5300.000000	1.270055
5298.000000	1.270350
5296.000000	1.270536
5294.000000	1.270032
5292.000000	1.269405
5290.000000	1.269319
5288.000000	1.269509
5286.000000	1.269562
5284.000000	1.269519
5282.000000	1.269517
5280.000000	1.269449
5278.000000	1.269413
5276.000000	1.269490
5274.000000	1.269395
5272.000000	1.269319
5270.000000	1.269381
5268.000000	1.269378
5266.000000	1.269038
5264.000000	1.268899
5262.000000	1.269453
5260.000000	1.269936
5258.000000	1.269524
5256.000000	1.269040
5254.000000	1.269253
5252.000000	1.269609
5250.000000	1.269188
5248.000000	1.268689
5246.000000	1.268777
5244.000000	1.269105
5242.000000	1.269281
5240.000000	1.269325
5238.000000	1.269286
5236.000000	1.269093
5234.000000	1.269083
5232.000000	1.269350
5230.000000	1.269553
5228.000000	1.269462
5226.000000	1.269509
5224.000000	1.269665
5222.000000	1.269693
5220.000000	1.269369
5218.000000	1.269113
5216.000000	1.269032
5214.000000	1.268964
5212.000000	1.268545
5210.000000	1.268183
5208.000000	1.268180
5206.000000	1.268699
5204.000000	1.269138
5202.000000	1.269140
5200.000000	1.268810
5198.000000	1.268544
5196.000000	1.268542
5194.000000	1.268753
5192.000000	1.268922
5190.000000	1.268830
5188.000000	1.268567
5186.000000	1.268466
5184.000000	1.268483
5182.000000	1.268382
5180.000000	1.268167
5178.000000	1.268247
5176.000000	1.268433
5174.000000	1.268398
5172.000000	1.268262
5170.000000	1.268486
5168.000000	1.268811
5166.000000	1.268810
5164.000000	1.268465
5162.000000	1.268187
5160.000000	1.268147
5158.000000	1.268316
5156.000000	1.268602
5154.000000	1.268705
5152.000000	1.268779
5150.000000	1.268728
5148.000000	1.268622
5146.000000	1.268492
5144.000000	1.268535
5142.000000	1.268583
5140.000000	1.268563
5138.000000	1.268481
5136.000000	1.268565
5134.000000	1.268674
5132.000000	1.268726
5130.000000	1.268691
5128.000000	1.268557
5126.000000	1.268261
5124.000000	1.268104
5122.000000	1.268313
5120.000000	1.268571
5118.000000	1.268537
5116.000000	1.268531
5114.000000	1.268626
5112.000000	1.268729
5110.000000	1.268706
5108.000000	1.268532
5106.000000	1.268216
5104.000000	1.268159
5102.000000	1.268319
5100.000000	1.268362
5098.000000	1.268465
5096.000000	1.268614
5094.000000	1.268486
5092.000000	1.268164
5090.000000	1.268218
5088.000000	1.268443
5086.000000	1.268479
5084.000000	1.268436
5082.000000	1.268415
5080.000000	1.268188
5078.000000	1.267791
5076.000000	1.267701
5074.000000	1.268033
5072.000000	1.268261
5070.000000	1.268036
5068.000000	1.267823
5066.000000	1.267986
5064.000000	1.268190
5062.000000	1.268235
5060.000000	1.268165
5058.000000	1.268131
5056.000000	1.268089
5054.000000	1.268213
5052.000000	1.268497
5050.000000	1.268576
5048.000000	1.268476
5046.000000	1.268459
5044.000000	1.268541
5042.000000	1.268662
5040.000000	1.268764
5038.000000	1.268641
5036.000000	1.268339
5034.000000	1.268187
5032.000000	1.268318
5030.000000	1.268390
5028.000000	1.268365
5026.000000	1.268420
5024.000000	1.268502
5022.000000	1.268396
5020.000000	1.268023
5018.000000	1.267929
5016.000000	1.268180
5014.000000	1.268449
5012.000000	1.268421
5010.000000	1.268323
5008.000000	1.268100
5006.000000	1.267943
5004.000000	1.268123
5002.000000	1.268499
5000.000000	1.268556
4998.000000	1.268189
4996.000000	1.267948
4994.000000	1.268080
4992.000000	1.268379
4990.000000	1.268388
4988.000000	1.267960
4986.000000	1.267520
4984.000000	1.267518
4982.000000	1.267847
4980.000000	1.268114
4978.000000	1.268080
4976.000000	1.267969
4974.000000	1.268030
4972.000000	1.268018
4970.000000	1.267842
4968.000000	1.267815
4966.000000	1.268143
4964.000000	1.268234
4962.000000	1.268000
4960.000000	1.267801
4958.000000	1.267802
4956.000000	1.267728
4954.000000	1.267763
4952.000000	1.268111
4950.000000	1.268303
4948.000000	1.268221
4946.000000	1.268222
4944.000000	1.268273
4942.000000	1.268088
4940.000000	1.268017
4938.000000	1.268269
4936.000000	1.268396
4934.000000	1.268245
4932.000000	1.268031
4930.000000	1.267983
4928.000000	1.268144
4926.000000	1.268269
4924.000000	1.268112
4922.000000	1.267811
4920.000000	1.267738
4918.000000	1.267817
4916.000000	1.267881
4914.000000	1.267886
4912.000000	1.267965
4910.000000	1.268038
4908.000000	1.268029
4906.000000	1.268041
4904.000000	1.268069
4902.000000	1.268025
4900.000000	1.267926
4898.000000	1.267981
4896.000000	1.267958
4894.000000	1.267813
4892.000000	1.267796
4890.000000	1.267939
4888.000000	1.268002
4886.000000	1.267842
4884.000000	1.267619
4882.000000	1.267602
4880.000000	1.267815
4878.000000	1.268000
4876.000000	1.268012
4874.000000	1.267982
4872.000000	1.267837
4870.000000	1.267644
4868.000000	1.267616
4866.000000	1.267746
4864.000000	1.268000
4862.000000	1.268145
4860.000000	1.268097
4858.000000	1.267837
4856.000000	1.267626
4854.000000	1.267688
4852.000000	1.267958
4850.000000	1.268077
4848.000000	1.267905
4846.000000	1.267861
4844.000000	1.267989
4842.000000	1.268011
4840.000000	1.268005
4838.000000	1.267990
4836.000000	1.267797
4834.000000	1.267580
4832.000000	1.267617
4830.000000	1.267837
4828.000000	1.267964
4826.000000	1.268023
4824.000000	1.267976
4822.000000	1.267901
4820.000000	1.267783
4818.000000	1.267650
4816.000000	1.267489
4814.000000	1.267499
4812.000000	1.267801
4810.000000	1.268065
4808.000000	1.268014
4806.000000	1.267722
4804.000000	1.267705
4802.000000	1.267851
4800.000000	1.267881
4798.000000	1.267702
4796.000000	1.267681
4794.000000	1.267816
4792.000000	1.267866
4790.000000	1.267740
4788.000000	1.267548
4786.000000	1.267533
4784.000000	1.267750
4782.000000	1.267938
4780.000000	1.267752
4778.000000	1.267447
4776.000000	1.267352
4774.000000	1.267530
4772.000000	1.267660
4770.000000	1.267685
4768.000000	1.267643
4766.000000	1.267718
4764.000000	1.267754
4762.000000	1.267700
4760.000000	1.267634
4758.000000	1.267600
4756.000000	1.267578
4754.000000	1.267553
4752.000000	1.267575
4750.000000	1.267631
4748.000000	1.267621
4746.000000	1.267579
4744.000000	1.267614
4742.000000	1.267618
4740.000000	1.267566
4738.000000	1.267626
4736.000000	1.267707
4734.000000	1.267631
4732.000000	1.267556
4730.000000	1.267547
4728.000000	1.267524
4726.000000	1.267494
4724.000000	1.267431
4722.000000	1.267291
4720.000000	1.267273
4718.000000	1.267464
4716.000000	1.267560
4714.000000	1.267516
4712.000000	1.267405
4710.000000	1.267291
4708.000000	1.267253
4706.000000	1.267289
4704.000000	1.267263
4702.000000	1.267246
4700.000000	1.267215
4698.000000	1.267223
4696.000000	1.267351
4694.000000	1.267353
4692.000000	1.267273
4690.000000	1.267335
4688.000000	1.267302
4686.000000	1.267028
4684.000000	1.266980
4682.000000	1.267175
4680.000000	1.267226
4678.000000	1.267151
4676.000000	1.267163
4674.000000	1.267286
4672.000000	1.267394
4670.000000	1.267381
4668.000000	1.267158
4666.000000	1.267000
4664.000000	1.267079
4662.000000	1.267247
4660.000000	1.267375
4658.000000	1.267568
4656.000000	1.267640
4654.000000	1.267541
4652.000000	1.267444
4650.000000	1.267488
4648.000000	1.267585
4646.000000	1.267553
4644.000000	1.267383
4642.000000	1.267329
4640.000000	1.267426
4638.000000	1.267425
4636.000000	1.267267
4634.000000	1.267230
4632.000000	1.267283
4630.000000	1.267223
4628.000000	1.267126
4626.000000	1.267309
4624.000000	1.267553
4622.000000	1.267414
4620.000000	1.267062
4618.000000	1.266944
4616.000000	1.266893
4614.000000	1.266822
4612.000000	1.266906
4610.000000	1.266965
4608.000000	1.266768
4606.000000	1.266592
4604.000000	1.266673
4602.000000	1.266830
4600.000000	1.266861
4598.000000	1.266841
4596.000000	1.266917
4594.000000	1.267013
4592.000000	1.267089
4590.000000	1.267127
4588.000000	1.267133
4586.000000	1.267100
4584.000000	1.267084
4582.000000	1.267115
4580.000000	1.267196
4578.000000	1.267268
4576.000000	1.267288
4574.000000	1.267151
4572.000000	1.267000
4570.000000	1.266951
4568.000000	1.266956
4566.000000	1.267015
4564.000000	1.267189
4562.000000	1.267250
4560.000000	1.267044
4558.000000	1.266866
4556.000000	1.266983
4554.000000	1.267135
4552.000000	1.267136
4550.000000	1.267031
4548.000000	1.266906
4546.000000	1.266873
4544.000000	1.266884
4542.000000	1.266927
4540.000000	1.266944
4538.000000	1.266805
4536.000000	1.266630
4534.000000	1.266604
4532.000000	1.266694
4530.000000	1.266745
4528.000000	1.266753
4526.000000	1.266826
4524.000000	1.266929
4522.000000	1.266826
4520.000000	1.266627
4518.000000	1.266547
4516.000000	1.266653
4514.000000	1.266844
4512.000000	1.266916
4510.000000	1.266773
4508.000000	1.266587
4506.000000	1.266605
4504.000000	1.266760
4502.000000	1.266824
4500.000000	1.266738
4498.000000	1.266612
4496.000000	1.266481
4494.000000	1.266423
4492.000000	1.266486
4490.000000	1.266700
4488.000000	1.266901
4486.000000	1.266967
4484.000000	1.266934
4482.000000	1.266784
4480.000000	1.266519
4478.000000	1.266457
4476.000000	1.266695
4474.000000	1.266870
4472.000000	1.266803
4470.000000	1.266706
4468.000000	1.266786
4466.000000	1.266947
4464.000000	1.266931
4462.000000	1.266797
4460.000000	1.266778
4458.000000	1.266802
4456.000000	1.266680
4454.000000	1.266547
4452.000000	1.266530
4450.000000	1.266601
4448.000000	1.266717
4446.000000	1.266751
4444.000000	1.266633
4442.000000	1.266458
4440.000000	1.266406
4438.000000	1.266567
4436.000000	1.266731
4434.000000	1.266638
4432.000000	1.266444
4430.000000	1.266258
4428.000000	1.266222
4426.000000	1.266431
4424.000000	1.266579
4422.000000	1.266445
4420.000000	1.266257
4418.000000	1.266230
4416.000000	1.266409
4414.000000	1.266619
4412.000000	1.266580
4410.000000	1.266409
4408.000000	1.266306
4406.000000	1.266210
4404.000000	1.266142
4402.000000	1.266227
4400.000000	1.266369
4398.000000	1.266452
4396.000000	1.266438
4394.000000	1.266331
4392.000000	1.266222
4390.000000	1.266196
4388.000000	1.266123
4386.000000	1.265972
4384.000000	1.265947
4382.000000	1.266149
4380.000000	1.266273
4378.000000	1.266211
4376.000000	1.266145
4374.000000	1.266121
4372.000000	1.266072
4370.000000	1.266103
4368.000000	1.266131
4366.000000	1.266108
4364.000000	1.266212
4362.000000	1.266346
4360.000000	1.266312
4358.000000	1.266328
4356.000000	1.266384
4354.000000	1.266245
4352.000000	1.266072
4350.000000	1.266099
4348.000000	1.266226
4346.000000	1.266268
4344.000000	1.266130
4342.000000	1.265927
4340.000000	1.265796
4338.000000	1.265727
4336.000000	1.265684
4334.000000	1.265746
4332.000000	1.265830
4330.000000	1.265843
4328.000000	1.265906
4326.000000	1.266052
4324.000000	1.266068
4322.000000	1.265951
4320.000000	1.265819
4318.000000	1.265826
4316.000000	1.265991
4314.000000	1.266066
4312.000000	1.265899
4310.000000	1.265687
4308.000000	1.265554
4306.000000	1.265487
4304.000000	1.265496
4302.000000	1.265589
4300.000000	1.265658
4298.000000	1.265697
4296.000000	1.265749
4294.000000	1.265666
4292.000000	1.265397
4290.000000	1.265321
4288.000000	1.265625
4286.000000	1.265861
4284.000000	1.265705
4282.000000	1.265484
4280.000000	1.265482
4278.000000	1.265548
4276.000000	1.265512
4274.000000	1.265365
4272.000000	1.265191
4270.000000	1.265307
4268.000000	1.265514
4266.000000	1.265448
4264.000000	1.265394
4262.000000	1.265425
4260.000000	1.265343
4258.000000	1.265441
4256.000000	1.265586
4254.000000	1.265470
4252.000000	1.265265
4250.000000	1.265178
4248.000000	1.265145
4246.000000	1.265142
4244.000000	1.265148
4242.000000	1.265196
4240.000000	1.265224
4238.000000	1.265144
4236.000000	1.265076
4234.000000	1.265004
4232.000000	1.264832
4230.000000	1.264749
4228.000000	1.264719
4226.000000	1.264694
4224.000000	1.264746
4222.000000	1.264785
4220.000000	1.264682
4218.000000	1.264514
4216.000000	1.264560
4214.000000	1.264770
4212.000000	1.264824
4210.000000	1.264841
4208.000000	1.264874
4206.000000	1.264792
4204.000000	1.264689
4202.000000	1.264666
4200.000000	1.264637
4198.000000	1.264569
4196.000000	1.264531
4194.000000	1.264549
4192.000000	1.264553
4190.000000	1.264498
4188.000000	1.264459
4186.000000	1.264469
4184.000000	1.264450
4182.000000	1.264408
4180.000000	1.264435
4178.000000	1.264569
4176.000000	1.264559
4174.000000	1.264340
4172.000000	1.264287
4170.000000	1.264445
4168.000000	1.264454
4166.000000	1.264342
4164.000000	1.264326
4162.000000	1.264270
4160.000000	1.264054
4158.000000	1.263910
4156.000000	1.263907
4154.000000	1.263974
4152.000000	1.264035
4150.000000	1.263972
4148.000000	1.263813
4146.000000	1.263727
4144.000000	1.263750
4142.000000	1.263776
4140.000000	1.263620
4138.000000	1.263445
4136.000000	1.263544
4134.000000	1.263747
4132.000000	1.263800
4130.000000	1.263719
4128.000000	1.263525
4126.000000	1.263371
4124.000000	1.263316
4122.000000	1.263358
4120.000000	1.263457
4118.000000	1.263438
4116.000000	1.263312
4114.000000	1.263272
4112.000000	1.263176
4110.000000	1.262998
4108.000000	1.263017
4106.000000	1.263254
4104.000000	1.263369
4102.000000	1.263254
4100.000000	1.263056
4098.000000	1.262920
4096.000000	1.262859
4094.000000	1.262890
4092.000000	1.263006
4090.000000	1.263124
4088.000000	1.263168
4086.000000	1.263102
4084.000000	1.262913
4082.000000	1.262707
4080.000000	1.262619
4078.000000	1.262670
4076.000000	1.262761
4074.000000	1.262890
4072.000000	1.262899
4070.000000	1.262708
4068.000000	1.262554
4066.000000	1.262531
4064.000000	1.262500
4062.000000	1.262320
4060.000000	1.262128
4058.000000	1.262079
4056.000000	1.262059
4054.000000	1.262099
4052.000000	1.262137
4050.000000	1.262126
4048.000000	1.262042
4046.000000	1.261894
4044.000000	1.261882
4042.000000	1.262014
4040.000000	1.262036
4038.000000	1.261881
4036.000000	1.261696
4034.000000	1.261650
4032.000000	1.261695
4030.000000	1.261651
4028.000000	1.261541
4026.000000	1.261521
4024.000000	1.261506
4022.000000	1.261398
4020.000000	1.261292
4018.000000	1.261313
4016.000000	1.261288
4014.000000	1.261149
4012.000000	1.261110
4010.000000	1.261165
4008.000000	1.261161
4006.000000	1.261130
4004.000000	1.261199
4002.000000	1.261363
4000.000000	1.261372
3998.000000	1.261183
3996.000000	1.261091
3994.000000	1.261118
3992.000000	1.261059
3990.000000	1.261033
3988.000000	1.261039
3986.000000	1.260896
3984.000000	1.260765
3982.000000	1.260773
3980.000000	1.260757
3978.000000	1.260672
3976.000000	1.260517
3974.000000	1.260352
3972.000000	1.260345
3970.000000	1.260531
3968.000000	1.260642
3966.000000	1.260542
3964.000000	1.260337
3962.000000	1.260185
3960.000000	1.260265
3958.000000	1.260364
3956.000000	1.260187
3954.000000	1.259980
3952.000000	1.259824
3950.000000	1.259657
3948.000000	1.259631
3946.000000	1.259559
3944.000000	1.259361
3942.000000	1.259575
3940.000000	1.260002
3938.000000	1.260002
3936.000000	1.259441
3934.000000	1.258750
3932.000000	1.258757
3930.000000	1.259268
3928.000000	1.259244
3926.000000	1.258873
3924.000000	1.258842
3922.000000	1.258606
3920.000000	1.257934
3918.000000	1.258025
3916.000000	1.259135
3914.000000	1.259775
3912.000000	1.259301
3910.000000	1.258587
3908.000000	1.257477
3906.000000	1.255807
3904.000000	1.255442
3902.000000	1.256693
3900.000000	1.258214
3898.000000	1.259601
3896.000000	1.259411
3894.000000	1.257254
3892.000000	1.256486
3890.000000	1.257566
3888.000000	1.256668
3886.000000	1.256019
3884.000000	1.257719
3882.000000	1.257883
3880.000000	1.257772
3878.000000	1.258363
3876.000000	1.257250
3874.000000	1.255759
3872.000000	1.254449
3870.000000	1.254966
3868.000000	1.256995
3866.000000	1.256742
3864.000000	1.256516
3862.000000	1.257790
3860.000000	1.257816
3858.000000	1.254052
3856.000000	1.247136
3854.000000	1.247170
3852.000000	1.256407
3850.000000	1.261499
3848.000000	1.259395
3846.000000	1.256645
3844.000000	1.255404
3842.000000	1.254183
3840.000000	1.251919
3838.000000	1.252514
3836.000000	1.256337
3834.000000	1.257611
3832.000000	1.257003
3830.000000	1.257186
3828.000000	1.256964
3826.000000	1.256086
3824.000000	1.253763
3822.000000	1.252551
3820.000000	1.254299
3818.000000	1.253819
3816.000000	1.254245
3814.000000	1.258304
3812.000000	1.258591
3810.000000	1.254975
3808.000000	1.253218
3806.000000	1.254586
3804.000000	1.253491
3802.000000	1.252176
3800.000000	1.255789
3798.000000	1.257649
3796.000000	1.256985
3794.000000	1.257343
3792.000000	1.257130
3790.000000	1.256574
3788.000000	1.256249
3786.000000	1.255967
3784.000000	1.255883
3782.000000	1.255436
3780.000000	1.255271
3778.000000	1.256371
3776.000000	1.257004
3774.000000	1.256075
3772.000000	1.254481
3770.000000	1.254272
3768.000000	1.255223
3766.000000	1.255607
3764.000000	1.255683
3762.000000	1.254736
3760.000000	1.253909
3758.000000	1.254539
3756.000000	1.253168
3754.000000	1.248740
3752.000000	1.246978
3750.000000	1.250510
3748.000000	1.251631
3746.000000	1.247935
3744.000000	1.250789
3742.000000	1.256982
3740.000000	1.254749
3738.000000	1.250125
3736.000000	1.250060
3734.000000	1.252043
3732.000000	1.253833
3730.000000	1.254944
3728.000000	1.253840
3726.000000	1.252946
3724.000000	1.253430
3722.000000	1.253757
3720.000000	1.254153
3718.000000	1.254257
3716.000000	1.252665
3714.000000	1.249790
3712.000000	1.249889
3710.000000	1.253188
3708.000000	1.255007
3706.000000	1.254287
3704.000000	1.252671
3702.000000	1.252460
3700.000000	1.253760
3698.000000	1.254085
3696.000000	1.253258
3694.000000	1.251667
3692.000000	1.248909
3690.000000	1.247391
3688.000000	1.250855
3686.000000	1.254895
3684.000000	1.254127
3682.000000	1.251940
3680.000000	1.249822
3678.000000	1.246424
3676.000000	1.246332
3674.000000	1.249672
3672.000000	1.248956
3670.000000	1.249106
3668.000000	1.252857
3666.000000	1.253453
3664.000000	1.251999
3662.000000	1.251428
3660.000000	1.250444
3658.000000	1.248751
3656.000000	1.249247
3654.000000	1.249613
3652.000000	1.246070
3650.000000	1.244612
3648.000000	1.248633
3646.000000	1.251956
3644.000000	1.251716
3642.000000	1.250586
3640.000000	1.250037
3638.000000	1.249741
3636.000000	1.249344
3634.000000	1.248497
3632.000000	1.245705
3630.000000	1.243719
3628.000000	1.247666
3626.000000	1.251292
3624.000000	1.249754
3622.000000	1.246956
3620.000000	1.246079
3618.000000	1.247670
3616.000000	1.248277
3614.000000	1.247225
3612.000000	1.246659
3610.000000	1.246619
3608.000000	1.247748
3606.000000	1.249019
3604.000000	1.248620
3602.000000	1.247741
3600.000000	1.247606
3598.000000	1.247576
3596.000000	1.247340
3594.000000	1.247592
3592.000000	1.247356
3590.000000	1.245922
3588.000000	1.245742
3586.000000	1.247478
3584.000000	1.248326
3582.000000	1.247942
3580.000000	1.247634
3578.000000	1.247484
3576.000000	1.247450
3574.000000	1.247518
3572.000000	1.247080
3570.000000	1.245770
3568.000000	1.245290
3566.000000	1.246722
3564.000000	1.247786
3562.000000	1.247585
3560.000000	1.247416
3558.000000	1.247511
3556.000000	1.247411
3554.000000	1.247228
3552.000000	1.247311
3550.000000	1.247350
3548.000000	1.247030
3546.000000	1.247139
3544.000000	1.247750
3542.000000	1.248083
3540.000000	1.248002
3538.000000	1.247899
3536.000000	1.248118
3534.000000	1.248286
3532.000000	1.248009
3530.000000	1.247832
3528.000000	1.248021
3526.000000	1.248232
3524.000000	1.248454
3522.000000	1.248827
3520.000000	1.249143
3518.000000	1.249292
3516.000000	1.249354
3514.000000	1.249404
3512.000000	1.249440
3510.000000	1.249619
3508.000000	1.249958
3506.000000	1.249929
3504.000000	1.249845
3502.000000	1.250228
3500.000000	1.250713
3498.000000	1.250983
3496.000000	1.251196
3494.000000	1.251502
3492.000000	1.251710
3490.000000	1.251827
3488.000000	1.252117
3486.000000	1.252463
3484.000000	1.252691
3482.000000	1.252973
3480.000000	1.253390
3478.000000	1.253723
3476.000000	1.253951
3474.000000	1.254361
3472.000000	1.254747
3470.000000	1.254828
3468.000000	1.255075
3466.000000	1.255628
3464.000000	1.256069
3462.000000	1.256550
3460.000000	1.257162
3458.000000	1.257496
3456.000000	1.257685
3454.000000	1.258121
3452.000000	1.258651
3450.000000	1.258906
3448.000000	1.259090
3446.000000	1.259599
3444.000000	1.260180
3442.000000	1.260681
3440.000000	1.261251
3438.000000	1.261640
3436.000000	1.261952
3434.000000	1.262570
3432.000000	1.263242
3430.000000	1.263730
3428.000000	1.264119
3426.000000	1.264454
3424.000000	1.264737
3422.000000	1.265041
3420.000000	1.265476
3418.000000	1.265930
3416.000000	1.266248
3414.000000	1.266404
3412.000000	1.266572
3410.000000	1.266927
3408.000000	1.267219
3406.000000	1.267431
3404.000000	1.267576
3402.000000	1.267670
3400.000000	1.267898
3398.000000	1.268296
3396.000000	1.268620
3394.000000	1.268801
3392.000000	1.269025
3390.000000	1.269265
3388.000000	1.269393
3386.000000	1.269467
3384.000000	1.269597
3382.000000	1.269727
3380.000000	1.269820
3378.000000	1.270035
3376.000000	1.270228
3374.000000	1.270385
3372.000000	1.270513
3370.000000	1.270449
3368.000000	1.270416
3366.000000	1.270655
3364.000000	1.270921
3362.000000	1.271007
3360.000000	1.271153
3358.000000	1.271330
3356.000000	1.271394
3354.000000	1.271494
3352.000000	1.271529
3350.000000	1.271617
3348.000000	1.271809
3346.000000	1.271828
3344.000000	1.271776
3342.000000	1.271859
3340.000000	1.271930
3338.000000	1.271956
3336.000000	1.272161
3334.000000	1.272321
3332.000000	1.272191
3330.000000	1.272176
3328.000000	1.272360
3326.000000	1.272546
3324.000000	1.272695
3322.000000	1.272753
3320.000000	1.272748
3318.000000	1.272778
3316.000000	1.272756
3314.000000	1.272803
3312.000000	1.272903
3310.000000	1.272887
3308.000000	1.272910
3306.000000	1.273044
3304.000000	1.273262
3302.000000	1.273523
3300.000000	1.273569
3298.000000	1.273460
3296.000000	1.273395
3294.000000	1.273407
3292.000000	1.273588
3290.000000	1.273820
3288.000000	1.273845
3286.000000	1.273781
3284.000000	1.273837
3282.000000	1.273925
3280.000000	1.273979
3278.000000	1.274054
3276.000000	1.274039
3274.000000	1.273992
3272.000000	1.273995
3270.000000	1.274117
3268.000000	1.274219
3266.000000	1.274170
3264.000000	1.274292
3262.000000	1.274475
3260.000000	1.274409
3258.000000	1.274309
3256.000000	1.274327
3254.000000	1.274393
3252.000000	1.274453
3250.000000	1.274487
3248.000000	1.274466
3246.000000	1.274470
3244.000000	1.274627
3242.000000	1.274765
3240.000000	1.274797
3238.000000	1.274802
3236.000000	1.274765
3234.000000	1.274863
3232.000000	1.275014
3230.000000	1.275069
3228.000000	1.275203
3226.000000	1.275383
3224.000000	1.275427
3222.000000	1.275325
3220.000000	1.275322
3218.000000	1.275438
3216.000000	1.275416
3214.000000	1.275266
3212.000000	1.275262
3210.000000	1.275306
3208.000000	1.275321
3206.000000	1.275394
3204.000000	1.275465
3202.000000	1.275514
3200.000000	1.275468
3198.000000	1.275456
3196.000000	1.275547
3194.000000	1.275543
3192.000000	1.275494
3190.000000	1.275525
3188.000000	1.275556
3186.000000	1.275527
3184.000000	1.275469
3182.000000	1.275461
3180.000000	1.275414
3178.000000	1.275399
3176.000000	1.275508
3174.000000	1.275513
3172.000000	1.275414
3170.000000	1.275444
3168.000000	1.275570
3166.000000	1.275686
3164.000000	1.275722
3162.000000	1.275640
3160.000000	1.275585
3158.000000	1.275702
3156.000000	1.275802
3154.000000	1.275685
3152.000000	1.275646
3150.000000	1.275828
3148.000000	1.275995
3146.000000	1.276021
3144.000000	1.276009
3142.000000	1.276001
3140.000000	1.275985
3138.000000	1.275995
3136.000000	1.276062
3134.000000	1.276177
3132.000000	1.276282
3130.000000	1.276308
3128.000000	1.276308
3126.000000	1.276312
3124.000000	1.276250
3122.000000	1.276185
3120.000000	1.276147
3118.000000	1.276065
3116.000000	1.276023
3114.000000	1.276182
3112.000000	1.276279
3110.000000	1.276135
3108.000000	1.276047
3106.000000	1.276109
3104.000000	1.276034
3102.000000	1.275909
3100.000000	1.275976
3098.000000	1.276091
3096.000000	1.276094
3094.000000	1.276062
3092.000000	1.276030
3090.000000	1.275956
3088.000000	1.275854
3086.000000	1.275675
3084.000000	1.275455
3082.000000	1.275259
3080.000000	1.275085
3078.000000	1.275161
3076.000000	1.275350
3074.000000	1.275360
3072.000000	1.275232
3070.000000	1.275009
3068.000000	1.274835
3066.000000	1.274831
3064.000000	1.274851
3062.000000	1.274834
3060.000000	1.274870
3058.000000	1.274829
3056.000000	1.274643
3054.000000	1.274432
3052.000000	1.274325
3050.000000	1.274420
3048.000000	1.274451
3046.000000	1.274291
3044.000000	1.274161
3042.000000	1.274141
3040.000000	1.274040
3038.000000	1.273811
3036.000000	1.273692
3034.000000	1.273765
3032.000000	1.273814
3030.000000	1.273699
3028.000000	1.273491
3026.000000	1.273229
3024.000000	1.273122
3022.000000	1.273293
3020.000000	1.273499
3018.000000	1.273595
3016.000000	1.273751
3014.000000	1.273939
3012.000000	1.274075
3010.000000	1.274030
3008.000000	1.273800
3006.000000	1.273513
3004.000000	1.273277
3002.000000	1.273129
3000.000000	1.273026
2998.000000	1.272914
2996.000000	1.272738
2994.000000	1.272596
2992.000000	1.272626
2990.000000	1.272671
2988.000000	1.272660
2986.000000	1.272618
2984.000000	1.272518
2982.000000	1.272362
2980.000000	1.272257
2978.000000	1.272253
2976.000000	1.272201
2974.000000	1.271989
2972.000000	1.271903
2970.000000	1.272045
2968.000000	1.272339
2966.000000	1.272879
2964.000000	1.273628
2962.000000	1.274387
2960.000000	1.274874
2958.000000	1.274729
2956.000000	1.274294
2954.000000	1.273826
2952.000000	1.273297
2950.000000	1.272696
2948.000000	1.272048
2946.000000	1.271468
2944.000000	1.270993
2942.000000	1.270563
2940.000000	1.270295
2938.000000	1.270345
2936.000000	1.270568
2934.000000	1.270682
2932.000000	1.270710
2930.000000	1.270638
2928.000000	1.270806
2926.000000	1.271399
2924.000000	1.272300
2922.000000	1.273278
2920.000000	1.273915
2918.000000	1.274125
2916.000000	1.274075
2914.000000	1.273789
2912.000000	1.273386
2910.000000	1.272928
2908.000000	1.272516
2906.000000	1.272302
2904.000000	1.272196
2902.000000	1.271997
2900.000000	1.271790
2898.000000	1.271685
2896.000000	1.271633
2894.000000	1.271559
2892.000000	1.271435
2890.000000	1.271249
2888.000000	1.271072
2886.000000	1.270947
2884.000000	1.270800
2882.000000	1.270648
2880.000000	1.270452
2878.000000	1.270281
2876.000000	1.270067
2874.000000	1.269816
2872.000000	1.269553
2870.000000	1.269166
2868.000000	1.268636
2866.000000	1.268266
2864.000000	1.268342
2862.000000	1.268914
2860.000000	1.269701
2858.000000	1.270405
2856.000000	1.270883
2854.000000	1.270976
2852.000000	1.271081
2850.000000	1.271353
2848.000000	1.271570
2846.000000	1.271491
2844.000000	1.271168
2842.000000	1.270811
2840.000000	1.270522
2838.000000	1.270252
2836.000000	1.270066
2834.000000	1.270024
2832.000000	1.270034
2830.000000	1.269914
2828.000000	1.269796
2826.000000	1.269803
2824.000000	1.269837
2822.000000	1.269771
2820.000000	1.269617
2818.000000	1.269494
2816.000000	1.269503
2814.000000	1.269474
2812.000000	1.269429
2810.000000	1.269430
2808.000000	1.269381
2806.000000	1.269220
2804.000000	1.269133
2802.000000	1.269146
2800.000000	1.269115
2798.000000	1.269087
2796.000000	1.269105
2794.000000	1.269067
2792.000000	1.269000
2790.000000	1.268975
2788.000000	1.268971
2786.000000	1.268988
2784.000000	1.269018
2782.000000	1.268926
2780.000000	1.268906
2778.000000	1.268973
2776.000000	1.268929
2774.000000	1.268794
2772.000000	1.268752
2770.000000	1.268762
2768.000000	1.268708
2766.000000	1.268626
2764.000000	1.268647
2762.000000	1.268685
2760.000000	1.268591
2758.000000	1.268442
2756.000000	1.268401
2754.000000	1.268517
2752.000000	1.268666
2750.000000	1.268684
2748.000000	1.268602
2746.000000	1.268670
2744.000000	1.268794
2742.000000	1.268836
2740.000000	1.268763
2738.000000	1.268740
2736.000000	1.268829
2734.000000	1.268825
2732.000000	1.268754
2730.000000	1.268734
2728.000000	1.268781
2726.000000	1.268903
2724.000000	1.268973
2722.000000	1.268990
2720.000000	1.269069
2718.000000	1.269082
2716.000000	1.269056
2714.000000	1.269162
2712.000000	1.269215
2710.000000	1.269210
2708.000000	1.269317
2706.000000	1.269434
2704.000000	1.269511
2702.000000	1.269527
2700.000000	1.269579
2698.000000	1.269683
2696.000000	1.269891
2694.000000	1.270055
2692.000000	1.270098
2690.000000	1.270111
2688.000000	1.270163
2686.000000	1.270257
2684.000000	1.270324
2682.000000	1.270396
2680.000000	1.270480
2678.000000	1.270571
2676.000000	1.270712
2674.000000	1.270739
2672.000000	1.270734
2670.000000	1.270813
2668.000000	1.270949
2666.000000	1.271067
2664.000000	1.271080
2662.000000	1.271157
2660.000000	1.271319
2658.000000	1.271458
2656.000000	1.271539
2654.000000	1.271555
2652.000000	1.271540
2650.000000	1.271567
2648.000000	1.271679
2646.000000	1.271786
2644.000000	1.271844
2642.000000	1.271834
2640.000000	1.271854
2638.000000	1.271952
2636.000000	1.272112
2634.000000	1.272095
2632.000000	1.272004
2630.000000	1.272007
2628.000000	1.272074
2626.000000	1.272100
2624.000000	1.272158
2622.000000	1.272296
2620.000000	1.272420
2618.000000	1.272528
2616.000000	1.272535
2614.000000	1.272530
2612.000000	1.272617
2610.000000	1.272654
2608.000000	1.272633
2606.000000	1.272543
2604.000000	1.272504
2602.000000	1.272502
2600.000000	1.272576
2598.000000	1.272657
2596.000000	1.272672
2594.000000	1.272764
2592.000000	1.272810
2590.000000	1.272819
2588.000000	1.272894
2586.000000	1.272929
2584.000000	1.272968
2582.000000	1.272979
2580.000000	1.273049
2578.000000	1.273068
2576.000000	1.272926
2574.000000	1.272854
2572.000000	1.272913
2570.000000	1.273017
2568.000000	1.273093
2566.000000	1.273083
2564.000000	1.273016
2562.000000	1.272928
2560.000000	1.272959
2558.000000	1.273013
2556.000000	1.272952
2554.000000	1.272979
2552.000000	1.273129
2550.000000	1.273070
2548.000000	1.273007
2546.000000	1.273087
2544.000000	1.273061
2542.000000	1.272995
2540.000000	1.273029
2538.000000	1.273030
2536.000000	1.272978
2534.000000	1.272967
2532.000000	1.273001
2530.000000	1.273060
2528.000000	1.273078
2526.000000	1.273017
2524.000000	1.273007
2522.000000	1.273042
2520.000000	1.273033
2518.000000	1.272956
2516.000000	1.272896
2514.000000	1.272915
2512.000000	1.272998
2510.000000	1.272965
2508.000000	1.272950
2506.000000	1.272942
2504.000000	1.272952
2502.000000	1.272945
2500.000000	1.272974
2498.000000	1.272997
2496.000000	1.272978
2494.000000	1.272894
2492.000000	1.272821
2490.000000	1.272804
2488.000000	1.272822
2486.000000	1.272795
2484.000000	1.272741
2482.000000	1.272774
2480.000000	1.272815
2478.000000	1.272805
2476.000000	1.272795
2474.000000	1.272745
2472.000000	1.272715
2470.000000	1.272691
2468.000000	1.272673
2466.000000	1.272676
2464.000000	1.272695
2462.000000	1.272729
2460.000000	1.272772
2458.000000	1.272755
2456.000000	1.272771
2454.000000	1.272789
2452.000000	1.272807
2450.000000	1.272722
2448.000000	1.272685
2446.000000	1.272720
2444.000000	1.272773
2442.000000	1.272708
2440.000000	1.272645
2438.000000	1.272606
2436.000000	1.272578
2434.000000	1.272550
2432.000000	1.272526
2430.000000	1.272588
2428.000000	1.272634
2426.000000	1.272523
2424.000000	1.272337
2422.000000	1.272260
2420.000000	1.272402
2418.000000	1.272592
2416.000000	1.272618
2414.000000	1.272525
2412.000000	1.272483
2410.000000	1.272592
2408.000000	1.272683
2406.000000	1.272509
2404.000000	1.272370
2402.000000	1.272432
2400.000000	1.272507
2398.000000	1.272441
2396.000000	1.272331
2394.000000	1.272274
2392.000000	1.272404
2390.000000	1.272494
2388.000000	1.272363
2386.000000	1.272257
2384.000000	1.272205
2382.000000	1.272086
2380.000000	1.271921
2378.000000	1.271801
2376.000000	1.271688
2374.000000	1.271391
2372.000000	1.271069
2370.000000	1.270862
2368.000000	1.270749
2366.000000	1.270764
2364.000000	1.270935
2362.000000	1.271180
2360.000000	1.271495
2358.000000	1.271792
2356.000000	1.272006
2354.000000	1.272228
2352.000000	1.272517
2350.000000	1.272332
2348.000000	1.271606
2346.000000	1.271364
2344.000000	1.271780
2342.000000	1.272603
2340.000000	1.273489
2338.000000	1.273736
2336.000000	1.273222
2334.000000	1.272617
2332.000000	1.272356
2330.000000	1.272124
2328.000000	1.271963
2326.000000	1.272060
2324.000000	1.272173
2322.000000	1.272130
2320.000000	1.272080
2318.000000	1.272107
2316.000000	1.272186
2314.000000	1.272240
2312.000000	1.272318
2310.000000	1.272418
2308.000000	1.272358
2306.000000	1.272242
2304.000000	1.272179
2302.000000	1.272209
2300.000000	1.272285
2298.000000	1.272200
2296.000000	1.272193
2294.000000	1.272364
2292.000000	1.272500
2290.000000	1.272351
2288.000000	1.272205
2286.000000	1.272314
2284.000000	1.272365
2282.000000	1.272269
2280.000000	1.272263
2278.000000	1.272323
2276.000000	1.272317
2274.000000	1.272289
2272.000000	1.272252
2270.000000	1.272211
2268.000000	1.272230
2266.000000	1.272184
2264.000000	1.272014
2262.000000	1.271841
2260.000000	1.271864
2258.000000	1.271971
2256.000000	1.272029
2254.000000	1.271993
2252.000000	1.271952
2250.000000	1.271950
2248.000000	1.271888
2246.000000	1.271789
2244.000000	1.271788
2242.000000	1.271667
2240.000000	1.271576
2238.000000	1.271585
2236.000000	1.271604
2234.000000	1.271589
2232.000000	1.271504
2230.000000	1.271460
2228.000000	1.271426
2226.000000	1.271265
2224.000000	1.271203
2222.000000	1.271168
2220.000000	1.271147
2218.000000	1.271108
2216.000000	1.271015
2214.000000	1.271007
2212.000000	1.270963
2210.000000	1.270767
2208.000000	1.270729
2206.000000	1.270754
2204.000000	1.270772
2202.000000	1.270772
2200.000000	1.270609
2198.000000	1.270366
2196.000000	1.270236
2194.000000	1.270243
2192.000000	1.270259
2190.000000	1.270153
2188.000000	1.270062
2186.000000	1.269914
2184.000000	1.269896
2182.000000	1.269960
2180.000000	1.269931
2178.000000	1.269967
2176.000000	1.269953
2174.000000	1.269752
2172.000000	1.269627
2170.000000	1.269650
2168.000000	1.269645
2166.000000	1.269494
2164.000000	1.269302
2162.000000	1.269154
2160.000000	1.269243
2158.000000	1.269202
2156.000000	1.269029
2154.000000	1.269011
2152.000000	1.269036
2150.000000	1.268936
2148.000000	1.268840
2146.000000	1.268710
2144.000000	1.268655
2142.000000	1.268672
2140.000000	1.268691
2138.000000	1.268596
2136.000000	1.268527
2134.000000	1.268510
2132.000000	1.268439
2130.000000	1.268316
2128.000000	1.268292
2126.000000	1.268233
2124.000000	1.268163
2122.000000	1.268151
2120.000000	1.268079
2118.000000	1.268058
2116.000000	1.268052
2114.000000	1.268021
2112.000000	1.267935
2110.000000	1.267758
2108.000000	1.267709
2106.000000	1.267790
2104.000000	1.267839
2102.000000	1.267713
2100.000000	1.267583
2098.000000	1.267581
2096.000000	1.267594
2094.000000	1.267521
2092.000000	1.267433
2090.000000	1.267378
2088.000000	1.267323
2086.000000	1.267202
2084.000000	1.267159
2082.000000	1.267121
2080.000000	1.267149
2078.000000	1.267013
2076.000000	1.266894
2074.000000	1.266914
2072.000000	1.266921
2070.000000	1.266899
2068.000000	1.266879
2066.000000	1.266775
2064.000000	1.266834
2062.000000	1.266838
2060.000000	1.266766
2058.000000	1.266698
2056.000000	1.266668
2054.000000	1.266626
2052.000000	1.266602
2050.000000	1.266618
2048.000000	1.266533
2046.000000	1.266390
2044.000000	1.266356
2042.000000	1.266275
2040.000000	1.266183
2038.000000	1.266156
2036.000000	1.266182
2034.000000	1.266028
2032.000000	1.265980
2030.000000	1.265997
2028.000000	1.266049
2026.000000	1.265987
2024.000000	1.265929
2022.000000	1.265869
2020.000000	1.265758
2018.000000	1.265626
2016.000000	1.265773
2014.000000	1.265853
2012.000000	1.265804
2010.000000	1.265793
2008.000000	1.265799
2006.000000	1.265747
2004.000000	1.265750
2002.000000	1.265753
2000.000000	1.265720
1998.000000	1.265670
1996.000000	1.265593
1994.000000	1.265319
1992.000000	1.265278
1990.000000	1.265450
1988.000000	1.265452
1986.000000	1.265381
1984.000000	1.265343
1982.000000	1.265341
1980.000000	1.265342
1978.000000	1.265313
1976.000000	1.265326
1974.000000	1.265257
1972.000000	1.265180
1970.000000	1.265157
1968.000000	1.265169
1966.000000	1.265313
1964.000000	1.265329
1962.000000	1.265159
1960.000000	1.265087
1958.000000	1.265361
1956.000000	1.265474
1954.000000	1.265307
1952.000000	1.265243
1950.000000	1.265263
1948.000000	1.265240
1946.000000	1.265020
1944.000000	1.264675
1942.000000	1.264873
1940.000000	1.265359
1938.000000	1.265319
1936.000000	1.265252
1934.000000	1.265228
1932.000000	1.265326
1930.000000	1.265328
1928.000000	1.265245
1926.000000	1.265066
1924.000000	1.264873
1922.000000	1.264934
1920.000000	1.264623
1918.000000	1.264705
1916.000000	1.265605
1914.000000	1.265537
1912.000000	1.265289
1910.000000	1.265258
1908.000000	1.265421
1906.000000	1.265508
1904.000000	1.265644
1902.000000	1.265614
1900.000000	1.265608
1898.000000	1.265517
1896.000000	1.265477
1894.000000	1.265569
1892.000000	1.265352
1890.000000	1.265085
1888.000000	1.265585
1886.000000	1.265624
1884.000000	1.265620
1882.000000	1.265641
1880.000000	1.265682
1878.000000	1.265579
1876.000000	1.265586
1874.000000	1.265530
1872.000000	1.264899
1870.000000	1.264020
1868.000000	1.264816
1866.000000	1.265721
1864.000000	1.265827
1862.000000	1.265616
1860.000000	1.265596
1858.000000	1.265567
1856.000000	1.265615
1854.000000	1.265594
1852.000000	1.265651
1850.000000	1.265420
1848.000000	1.264858
1846.000000	1.263238
1844.000000	1.263785
1842.000000	1.265969
1840.000000	1.265996
1838.000000	1.265617
1836.000000	1.265679
1834.000000	1.265452
1832.000000	1.264413
1830.000000	1.264290
1828.000000	1.265200
1826.000000	1.264924
1824.000000	1.265631
1822.000000	1.266170
1820.000000	1.265972
1818.000000	1.265817
1816.000000	1.266024
1814.000000	1.265814
1812.000000	1.265489
1810.000000	1.265745
1808.000000	1.266100
1806.000000	1.265957
1804.000000	1.265548
1802.000000	1.264927
1800.000000	1.265227
1798.000000	1.265743
1796.000000	1.265196
1794.000000	1.263326
1792.000000	1.263988
1790.000000	1.265980
1788.000000	1.265957
1786.000000	1.265259
1784.000000	1.265564
1782.000000	1.265560
1780.000000	1.265711
1778.000000	1.265872
1776.000000	1.264731
1774.000000	1.262306
1772.000000	1.263238
1770.000000	1.265248
1768.000000	1.265557
1766.000000	1.266470
1764.000000	1.265220
1762.000000	1.264769
1760.000000	1.265988
1758.000000	1.265694
1756.000000	1.266041
1754.000000	1.265169
1752.000000	1.263129
1750.000000	1.264530
1748.000000	1.265934
1746.000000	1.266231
1744.000000	1.265987
1742.000000	1.265157
1740.000000	1.265150
1738.000000	1.265827
1736.000000	1.261564
1734.000000	1.261438
1732.000000	1.266768
1730.000000	1.267528
1728.000000	1.267595
1726.000000	1.267472
1724.000000	1.267365
1722.000000	1.266787
1720.000000	1.263231
1718.000000	1.261184
1716.000000	1.265240
1714.000000	1.267632
1712.000000	1.268087
1710.000000	1.267414
1708.000000	1.266539
1706.000000	1.265877
1704.000000	1.265742
1702.000000	1.260984
1700.000000	1.261742
1698.000000	1.263605
1696.000000	1.263370
1694.000000	1.268735
1692.000000	1.269015
1690.000000	1.267767
1688.000000	1.265803
1686.000000	1.260722
1684.000000	1.263322
1682.000000	1.268961
1680.000000	1.268797
1678.000000	1.267291
1676.000000	1.265627
1674.000000	1.267644
1672.000000	1.267044
1670.000000	1.266073
1668.000000	1.268489
1666.000000	1.269004
1664.000000	1.267419
1662.000000	1.268541
1660.000000	1.269857
1658.000000	1.268918
1656.000000	1.263163
1654.000000	1.257193
1652.000000	1.264998
1650.000000	1.269575
1648.000000	1.265465
1646.000000	1.266684
1644.000000	1.270261
1642.000000	1.270312
1640.000000	1.269202
1638.000000	1.266048
1636.000000	1.264902
1634.000000	1.269595
1632.000000	1.270953
1630.000000	1.269504
1628.000000	1.269176
1626.000000	1.268796
1624.000000	1.267900
1622.000000	1.269340
1620.000000	1.268560
1618.000000	1.265114
1616.000000	1.267468
1614.000000	1.270749
1612.000000	1.270096
1610.000000	1.270170
1608.000000	1.270824
1606.000000	1.271558
1604.000000	1.271659
1602.000000	1.271743
1600.000000	1.271700
1598.000000	1.271658
1596.000000	1.271445
1594.000000	1.271553
1592.000000	1.271595
1590.000000	1.271641
1588.000000	1.271618
1586.000000	1.271519
1584.000000	1.271493
1582.000000	1.271606
1580.000000	1.270688
1578.000000	1.266942
1576.000000	1.267518
1574.000000	1.271957
1572.000000	1.270163
1570.000000	1.268928
1568.000000	1.270790
1566.000000	1.271080
1564.000000	1.270044
1562.000000	1.264861
1560.000000	1.259537
1558.000000	1.265491
1556.000000	1.269869
1554.000000	1.270371
1552.000000	1.271257
1550.000000	1.271036
1548.000000	1.270751
1546.000000	1.269045
1544.000000	1.266883
1542.000000	1.263472
1540.000000	1.263857
1538.000000	1.270320
1536.000000	1.270898
1534.000000	1.268849
1532.000000	1.270713
1530.000000	1.270760
1528.000000	1.269215
1526.000000	1.268606
1524.000000	1.267014
1522.000000	1.265091
1520.000000	1.267994
1518.000000	1.268957
1516.000000	1.269520
1514.000000	1.270192
1512.000000	1.269616
1510.000000	1.267068
1508.000000	1.262172
1506.000000	1.264630
1504.000000	1.270023
1502.000000	1.268627
1500.000000	1.265223
1498.000000	1.262957
1496.000000	1.265902
1494.000000	1.271410
1492.000000	1.272450
1490.000000	1.272451
1488.000000	1.273128
1486.000000	1.273266
1484.000000	1.272820
1482.000000	1.271963
1480.000000	1.271554
1478.000000	1.270267
1476.000000	1.268651
1474.000000	1.267005
1472.000000	1.268737
1470.000000	1.271179
1468.000000	1.270326
1466.000000	1.268829
1464.000000	1.269827
1462.000000	1.270221
1460.000000	1.266620
1458.000000	1.262710
1456.000000	1.266119
1454.000000	1.269886
1452.000000	1.270322
1450.000000	1.271365
1448.000000	1.271961
1446.000000	1.272216
1444.000000	1.271544
1442.000000	1.271105
1440.000000	1.269794
1438.000000	1.267327
1436.000000	1.268697
1434.000000	1.270863
1432.000000	1.270076
1430.000000	1.270092
1428.000000	1.270597
1426.000000	1.270296
1424.000000	1.269793
1422.000000	1.268520
1420.000000	1.266702
1418.000000	1.268967
1416.000000	1.270421
1414.000000	1.270269
1412.000000	1.269819
1410.000000	1.269590
1408.000000	1.269068
1406.000000	1.268921
1404.000000	1.269852
1402.000000	1.270432
1400.000000	1.269925
1398.000000	1.270138
1396.000000	1.269476
1394.000000	1.269949
1392.000000	1.270666
1390.000000	1.269631
1388.000000	1.268566
1386.000000	1.269387
1384.000000	1.270202
1382.000000	1.270362
1380.000000	1.269891
1378.000000	1.269574
1376.000000	1.269129
1374.000000	1.269253
1372.000000	1.269794
1370.000000	1.269736
1368.000000	1.269767
1366.000000	1.269615
1364.000000	1.268783
1362.000000	1.268788
1360.000000	1.269229
1358.000000	1.269324
1356.000000	1.269278
1354.000000	1.269297
1352.000000	1.269295
1350.000000	1.269336
1348.000000	1.269296
1346.000000	1.269245
1344.000000	1.269055
1342.000000	1.268682
1340.000000	1.268497
1338.000000	1.268844
1336.000000	1.269066
1334.000000	1.269107
1332.000000	1.269004
1330.000000	1.268902
1328.000000	1.268808
1326.000000	1.268799
1324.000000	1.268553
1322.000000	1.268314
1320.000000	1.268178
1318.000000	1.268138
1316.000000	1.268134
1314.000000	1.268213
1312.000000	1.268278
1310.000000	1.268199
1308.000000	1.267976
1306.000000	1.267987
1304.000000	1.267942
1302.000000	1.267956
1300.000000	1.267907
1298.000000	1.267894
1296.000000	1.267875
1294.000000	1.267823
1292.000000	1.267717
1290.000000	1.267626
1288.000000	1.267648
1286.000000	1.267811
1284.000000	1.267797
1282.000000	1.267771
1280.000000	1.267656
1278.000000	1.267633
1276.000000	1.267668
1274.000000	1.267842
1272.000000	1.268141
1270.000000	1.268462
1268.000000	1.268947
1266.000000	1.270078
1264.000000	1.272057
1262.000000	1.274927
1260.000000	1.277574
1258.000000	1.278483
1256.000000	1.277241
1254.000000	1.275289
1252.000000	1.273473
1250.000000	1.272288
1248.000000	1.271780
1246.000000	1.271777
1244.000000	1.271922
1242.000000	1.272189
1240.000000	1.272184
1238.000000	1.272183
1236.000000	1.272397
1234.000000	1.272716
1232.000000	1.272956
1230.000000	1.273320
1228.000000	1.273702
1226.000000	1.273944
1224.000000	1.274162
1222.000000	1.274486
1220.000000	1.274708
1218.000000	1.274894
1216.000000	1.275234
1214.000000	1.275582
1212.000000	1.275903
1210.000000	1.276337
1208.000000	1.276621
1206.000000	1.276824
1204.000000	1.276933
1202.000000	1.277266
1200.000000	1.277663
1198.000000	1.277878
1196.000000	1.277898
1194.000000	1.278178
1192.000000	1.278736
1190.000000	1.279238
1188.000000	1.279512
1186.000000	1.279770
1184.000000	1.279809
1182.000000	1.280062
1180.000000	1.281280
1178.000000	1.282278
1176.000000	1.282351
1174.000000	1.282588
1172.000000	1.282719
1170.000000	1.282792
1168.000000	1.283143
1166.000000	1.283783
1164.000000	1.284266
1162.000000	1.284381
1160.000000	1.284714
1158.000000	1.285331
1156.000000	1.285619
1154.000000	1.286012
1152.000000	1.286392
1150.000000	1.286529
1148.000000	1.286634
1146.000000	1.287053
1144.000000	1.287393
1142.000000	1.287739
1140.000000	1.288377
1138.000000	1.288872
1136.000000	1.288826
1134.000000	1.289054
1132.000000	1.289291
1130.000000	1.289786
1128.000000	1.290174
1126.000000	1.290152
1124.000000	1.289765
1122.000000	1.289973
1120.000000	1.290348
1118.000000	1.290708
1116.000000	1.291064
1114.000000	1.291508
1112.000000	1.292347
1110.000000	1.293006
1108.000000	1.293045
1106.000000	1.293447
1104.000000	1.294146
1102.000000	1.294711
1100.000000	1.295145
1098.000000	1.295390
1096.000000	1.295697
1094.000000	1.295999
1092.000000	1.295984
1090.000000	1.296063
1088.000000	1.296202
1086.000000	1.296328
1084.000000	1.296389
1082.000000	1.296048
1080.000000	1.295853
1078.000000	1.295808
1076.000000	1.295374
1074.000000	1.295615
1072.000000	1.295682
1070.000000	1.294923
1068.000000	1.293843
1066.000000	1.293127
1064.000000	1.292644
1062.000000	1.292273
1060.000000	1.291636
1058.000000	1.291398
1056.000000	1.290656
1054.000000	1.288958
1052.000000	1.288721
1050.000000	1.290268
1048.000000	1.291337
1046.000000	1.291626
1044.000000	1.290502
1042.000000	1.289056
1040.000000	1.287911
1038.000000	1.287615
1036.000000	1.287141
1034.000000	1.286478
1032.000000	1.286197
1030.000000	1.286143
1028.000000	1.285240
1026.000000	1.284262
1024.000000	1.283726
1022.000000	1.283599
1020.000000	1.284000
1018.000000	1.284014
1016.000000	1.282892
1014.000000	1.282077
1012.000000	1.280273
1010.000000	1.277544
1008.000000	1.275795
1006.000000	1.274795
1004.000000	1.272441
1002.000000	1.269639
1000.000000	1.267839
