PE IR       SUBTECH     SPECTRUM    ASCII       PEDS        4.00        
   -1
TE110A_066_80K_AFTER_125K_2MIN.ASC
20/05/14
14:51:32.00
20/05/14
14:51:32.00
Administrator
TE110A.Thursday, May 14 2020, 014.
1000.000000
#HDR
-1
-1
#GR
cm-1
A
1.0
0.0
6000.000000
-2.000000
2501
8
1.344490
1.282119
#DATA
6000.000000	1.295535
5998.000000	1.295745
5996.000000	1.296245
5994.000000	1.296561
5992.000000	1.296555
5990.000000	1.296177
5988.000000	1.295957
5986.000000	1.296282
5984.000000	1.296459
5982.000000	1.296407
5980.000000	1.295755
5978.000000	1.295114
5976.000000	1.294847
5974.000000	1.294919
5972.000000	1.295372
5970.000000	1.295855
5968.000000	1.296066
5966.000000	1.295862
5964.000000	1.295939
5962.000000	1.296138
5960.000000	1.296660
5958.000000	1.296642
5956.000000	1.296367
5954.000000	1.296239
5952.000000	1.295979
5950.000000	1.295724
5948.000000	1.295463
5946.000000	1.295360
5944.000000	1.295516
5942.000000	1.295555
5940.000000	1.295375
5938.000000	1.295339
5936.000000	1.295665
5934.000000	1.296019
5932.000000	1.296012
5930.000000	1.295482
5928.000000	1.294881
5926.000000	1.294707
5924.000000	1.294677
5922.000000	1.294818
5920.000000	1.295198
5918.000000	1.295539
5916.000000	1.295881
5914.000000	1.295917
5912.000000	1.295496
5910.000000	1.295496
5908.000000	1.295597
5906.000000	1.295990
5904.000000	1.296209
5902.000000	1.295923
5900.000000	1.295616
5898.000000	1.295417
5896.000000	1.295600
5894.000000	1.295636
5892.000000	1.295368
5890.000000	1.295230
5888.000000	1.295716
5886.000000	1.296083
5884.000000	1.296001
5882.000000	1.295965
5880.000000	1.296060
5878.000000	1.295955
5876.000000	1.295410
5874.000000	1.295205
5872.000000	1.295421
5870.000000	1.295772
5868.000000	1.295866
5866.000000	1.295616
5864.000000	1.295519
5862.000000	1.295286
5860.000000	1.295024
5858.000000	1.294798
5856.000000	1.294741
5854.000000	1.294945
5852.000000	1.295173
5850.000000	1.295215
5848.000000	1.295445
5846.000000	1.295472
5844.000000	1.295130
5842.000000	1.295133
5840.000000	1.295223
5838.000000	1.295422
5836.000000	1.295279
5834.000000	1.294991
5832.000000	1.294925
5830.000000	1.294970
5828.000000	1.294934
5826.000000	1.295052
5824.000000	1.295178
5822.000000	1.295421
5820.000000	1.295837
5818.000000	1.295865
5816.000000	1.295525
5814.000000	1.295032
5812.000000	1.295015
5810.000000	1.295685
5808.000000	1.296250
5806.000000	1.296105
5804.000000	1.295582
5802.000000	1.295097
5800.000000	1.294971
5798.000000	1.294865
5796.000000	1.294791
5794.000000	1.295105
5792.000000	1.295566
5790.000000	1.295934
5788.000000	1.295758
5786.000000	1.295450
5784.000000	1.295275
5782.000000	1.295397
5780.000000	1.295302
5778.000000	1.294933
5776.000000	1.294729
5774.000000	1.294938
5772.000000	1.295180
5770.000000	1.295056
5768.000000	1.294639
5766.000000	1.294734
5764.000000	1.295174
5762.000000	1.295585
5760.000000	1.295666
5758.000000	1.295481
5756.000000	1.295258
5754.000000	1.294796
5752.000000	1.294419
5750.000000	1.294314
5748.000000	1.294510
5746.000000	1.294676
5744.000000	1.294807
5742.000000	1.295026
5740.000000	1.295201
5738.000000	1.295396
5736.000000	1.295579
5734.000000	1.295326
5732.000000	1.294823
5730.000000	1.294601
5728.000000	1.294847
5726.000000	1.295287
5724.000000	1.295371
5722.000000	1.295323
5720.000000	1.295080
5718.000000	1.294814
5716.000000	1.294827
5714.000000	1.295140
5712.000000	1.295213
5710.000000	1.295122
5708.000000	1.295056
5706.000000	1.295043
5704.000000	1.295204
5702.000000	1.295298
5700.000000	1.295315
5698.000000	1.295355
5696.000000	1.295310
5694.000000	1.295470
5692.000000	1.295542
5690.000000	1.295269
5688.000000	1.295093
5686.000000	1.295027
5684.000000	1.295149
5682.000000	1.295418
5680.000000	1.295282
5678.000000	1.294988
5676.000000	1.294594
5674.000000	1.294435
5672.000000	1.294385
5670.000000	1.294335
5668.000000	1.294586
5666.000000	1.295041
5664.000000	1.295211
5662.000000	1.295033
5660.000000	1.294866
5658.000000	1.294818
5656.000000	1.294711
5654.000000	1.294414
5652.000000	1.294331
5650.000000	1.294471
5648.000000	1.294778
5646.000000	1.295131
5644.000000	1.295311
5642.000000	1.295272
5640.000000	1.295144
5638.000000	1.295003
5636.000000	1.294909
5634.000000	1.294773
5632.000000	1.294630
5630.000000	1.294564
5628.000000	1.294650
5626.000000	1.294901
5624.000000	1.295230
5622.000000	1.295401
5620.000000	1.295298
5618.000000	1.294939
5616.000000	1.294806
5614.000000	1.295004
5612.000000	1.295273
5610.000000	1.295317
5608.000000	1.295099
5606.000000	1.294928
5604.000000	1.294885
5602.000000	1.295005
5600.000000	1.295163
5598.000000	1.295220
5596.000000	1.295002
5594.000000	1.294782
5592.000000	1.294622
5590.000000	1.294608
5588.000000	1.294494
5586.000000	1.294328
5584.000000	1.294446
5582.000000	1.294675
5580.000000	1.294939
5578.000000	1.294809
5576.000000	1.294820
5574.000000	1.294821
5572.000000	1.294782
5570.000000	1.294881
5568.000000	1.294974
5566.000000	1.295064
5564.000000	1.295017
5562.000000	1.294968
5560.000000	1.295068
5558.000000	1.295097
5556.000000	1.295128
5554.000000	1.295123
5552.000000	1.294824
5550.000000	1.294521
5548.000000	1.294491
5546.000000	1.294573
5544.000000	1.294525
5542.000000	1.294377
5540.000000	1.294232
5538.000000	1.294179
5536.000000	1.294179
5534.000000	1.294431
5532.000000	1.294639
5530.000000	1.294701
5528.000000	1.294797
5526.000000	1.294854
5524.000000	1.294988
5522.000000	1.294792
5520.000000	1.294482
5518.000000	1.294297
5516.000000	1.294575
5514.000000	1.294987
5512.000000	1.295052
5510.000000	1.294802
5508.000000	1.294752
5506.000000	1.294829
5504.000000	1.294734
5502.000000	1.294548
5500.000000	1.294523
5498.000000	1.294599
5496.000000	1.294465
5494.000000	1.294238
5492.000000	1.294344
5490.000000	1.294707
5488.000000	1.294774
5486.000000	1.294623
5484.000000	1.294526
5482.000000	1.294650
5480.000000	1.294473
5478.000000	1.294062
5476.000000	1.293983
5474.000000	1.294344
5472.000000	1.294732
5470.000000	1.294680
5468.000000	1.294370
5466.000000	1.294069
5464.000000	1.293994
5462.000000	1.294150
5460.000000	1.294400
5458.000000	1.294502
5456.000000	1.294586
5454.000000	1.294573
5452.000000	1.294486
5450.000000	1.294266
5448.000000	1.294107
5446.000000	1.294118
5444.000000	1.294192
5442.000000	1.294292
5440.000000	1.294419
5438.000000	1.294470
5436.000000	1.294411
5434.000000	1.294169
5432.000000	1.293826
5430.000000	1.293757
5428.000000	1.294138
5426.000000	1.294628
5424.000000	1.294848
5422.000000	1.294603
5420.000000	1.294370
5418.000000	1.293936
5416.000000	1.293446
5414.000000	1.293416
5412.000000	1.293920
5410.000000	1.294606
5408.000000	1.294838
5406.000000	1.294751
5404.000000	1.294593
5402.000000	1.294375
5400.000000	1.294246
5398.000000	1.294175
5396.000000	1.294016
5394.000000	1.294053
5392.000000	1.294347
5390.000000	1.294539
5388.000000	1.294205
5386.000000	1.293934
5384.000000	1.294377
5382.000000	1.294847
5380.000000	1.294556
5378.000000	1.293959
5376.000000	1.293927
5374.000000	1.294409
5372.000000	1.294674
5370.000000	1.294648
5368.000000	1.294663
5366.000000	1.294660
5364.000000	1.294728
5362.000000	1.294760
5360.000000	1.294669
5358.000000	1.294090
5356.000000	1.293495
5354.000000	1.293697
5352.000000	1.294334
5350.000000	1.294519
5348.000000	1.293987
5346.000000	1.293631
5344.000000	1.294078
5342.000000	1.294391
5340.000000	1.294273
5338.000000	1.294241
5336.000000	1.294718
5334.000000	1.295043
5332.000000	1.294820
5330.000000	1.294367
5328.000000	1.294183
5326.000000	1.294237
5324.000000	1.294489
5322.000000	1.294583
5320.000000	1.294536
5318.000000	1.294614
5316.000000	1.294772
5314.000000	1.294722
5312.000000	1.294579
5310.000000	1.294442
5308.000000	1.294469
5306.000000	1.294659
5304.000000	1.294863
5302.000000	1.294851
5300.000000	1.294613
5298.000000	1.294488
5296.000000	1.294485
5294.000000	1.294248
5292.000000	1.293912
5290.000000	1.293838
5288.000000	1.294097
5286.000000	1.294393
5284.000000	1.294493
5282.000000	1.294506
5280.000000	1.294483
5278.000000	1.294479
5276.000000	1.294496
5274.000000	1.294373
5272.000000	1.294229
5270.000000	1.294096
5268.000000	1.293828
5266.000000	1.293546
5264.000000	1.293610
5262.000000	1.294245
5260.000000	1.294697
5258.000000	1.294576
5256.000000	1.294445
5254.000000	1.294557
5252.000000	1.294591
5250.000000	1.294112
5248.000000	1.293863
5246.000000	1.294180
5244.000000	1.294773
5242.000000	1.294932
5240.000000	1.294717
5238.000000	1.294416
5236.000000	1.294182
5234.000000	1.294140
5232.000000	1.294163
5230.000000	1.294153
5228.000000	1.293900
5226.000000	1.293959
5224.000000	1.294490
5222.000000	1.294973
5220.000000	1.295060
5218.000000	1.295002
5216.000000	1.295003
5214.000000	1.294781
5212.000000	1.294395
5210.000000	1.294124
5208.000000	1.294122
5206.000000	1.294272
5204.000000	1.294523
5202.000000	1.294681
5200.000000	1.294574
5198.000000	1.294257
5196.000000	1.294173
5194.000000	1.294445
5192.000000	1.294726
5190.000000	1.294704
5188.000000	1.294509
5186.000000	1.294387
5184.000000	1.294336
5182.000000	1.294410
5180.000000	1.294513
5178.000000	1.294561
5176.000000	1.294584
5174.000000	1.294660
5172.000000	1.294730
5170.000000	1.294742
5168.000000	1.294693
5166.000000	1.294638
5164.000000	1.294595
5162.000000	1.294605
5160.000000	1.294640
5158.000000	1.294653
5156.000000	1.294683
5154.000000	1.294650
5152.000000	1.294577
5150.000000	1.294571
5148.000000	1.294731
5146.000000	1.294906
5144.000000	1.294992
5142.000000	1.295019
5140.000000	1.294984
5138.000000	1.294959
5136.000000	1.294931
5134.000000	1.294891
5132.000000	1.294819
5130.000000	1.294941
5128.000000	1.295066
5126.000000	1.295099
5124.000000	1.295073
5122.000000	1.295191
5120.000000	1.295222
5118.000000	1.295110
5116.000000	1.295047
5114.000000	1.295064
5112.000000	1.294954
5110.000000	1.294783
5108.000000	1.294839
5106.000000	1.295023
5104.000000	1.295051
5102.000000	1.295008
5100.000000	1.295088
5098.000000	1.295210
5096.000000	1.295266
5094.000000	1.295266
5092.000000	1.295227
5090.000000	1.295207
5088.000000	1.295284
5086.000000	1.295272
5084.000000	1.295151
5082.000000	1.295159
5080.000000	1.295279
5078.000000	1.295364
5076.000000	1.295357
5074.000000	1.295295
5072.000000	1.295186
5070.000000	1.295184
5068.000000	1.295322
5066.000000	1.295412
5064.000000	1.295446
5062.000000	1.295441
5060.000000	1.295489
5058.000000	1.295601
5056.000000	1.295651
5054.000000	1.295568
5052.000000	1.295533
5050.000000	1.295672
5048.000000	1.295855
5046.000000	1.295823
5044.000000	1.295613
5042.000000	1.295392
5040.000000	1.295433
5038.000000	1.295715
5036.000000	1.295978
5034.000000	1.295900
5032.000000	1.295705
5030.000000	1.295809
5028.000000	1.295961
5026.000000	1.295896
5024.000000	1.295764
5022.000000	1.295642
5020.000000	1.295512
5018.000000	1.295586
5016.000000	1.295797
5014.000000	1.296007
5012.000000	1.296145
5010.000000	1.296159
5008.000000	1.295876
5006.000000	1.295733
5004.000000	1.295804
5002.000000	1.295914
5000.000000	1.295990
4998.000000	1.295999
4996.000000	1.295844
4994.000000	1.295697
4992.000000	1.295717
4990.000000	1.295813
4988.000000	1.295902
4986.000000	1.296009
4984.000000	1.296069
4982.000000	1.295947
4980.000000	1.295831
4978.000000	1.295791
4976.000000	1.295825
4974.000000	1.295890
4972.000000	1.295928
4970.000000	1.295944
4968.000000	1.295893
4966.000000	1.295951
4964.000000	1.295915
4962.000000	1.295819
4960.000000	1.295856
4958.000000	1.296013
4956.000000	1.296168
4954.000000	1.296323
4952.000000	1.296307
4950.000000	1.296152
4948.000000	1.296042
4946.000000	1.296098
4944.000000	1.296120
4942.000000	1.296105
4940.000000	1.296098
4938.000000	1.296145
4936.000000	1.296331
4934.000000	1.296475
4932.000000	1.296528
4930.000000	1.296568
4928.000000	1.296525
4926.000000	1.296392
4924.000000	1.296243
4922.000000	1.296240
4920.000000	1.296370
4918.000000	1.296632
4916.000000	1.296832
4914.000000	1.296810
4912.000000	1.296696
4910.000000	1.296644
4908.000000	1.296613
4906.000000	1.296521
4904.000000	1.296405
4902.000000	1.296394
4900.000000	1.296556
4898.000000	1.296783
4896.000000	1.296832
4894.000000	1.296775
4892.000000	1.296741
4890.000000	1.296689
4888.000000	1.296642
4886.000000	1.296632
4884.000000	1.296569
4882.000000	1.296414
4880.000000	1.296343
4878.000000	1.296365
4876.000000	1.296558
4874.000000	1.296726
4872.000000	1.296722
4870.000000	1.296723
4868.000000	1.296900
4866.000000	1.297011
4864.000000	1.296945
4862.000000	1.296942
4860.000000	1.296989
4858.000000	1.296963
4856.000000	1.296824
4854.000000	1.296810
4852.000000	1.296904
4850.000000	1.296977
4848.000000	1.296911
4846.000000	1.296912
4844.000000	1.296960
4842.000000	1.296982
4840.000000	1.297028
4838.000000	1.297115
4836.000000	1.297117
4834.000000	1.297011
4832.000000	1.296992
4830.000000	1.296974
4828.000000	1.296822
4826.000000	1.296735
4824.000000	1.296931
4822.000000	1.297185
4820.000000	1.297210
4818.000000	1.297156
4816.000000	1.297156
4814.000000	1.297130
4812.000000	1.297030
4810.000000	1.297042
4808.000000	1.297191
4806.000000	1.297294
4804.000000	1.297255
4802.000000	1.297207
4800.000000	1.297215
4798.000000	1.297253
4796.000000	1.297218
4794.000000	1.297214
4792.000000	1.297356
4790.000000	1.297476
4788.000000	1.297371
4786.000000	1.297254
4784.000000	1.297283
4782.000000	1.297345
4780.000000	1.297330
4778.000000	1.297264
4776.000000	1.297234
4774.000000	1.297228
4772.000000	1.297203
4770.000000	1.297205
4768.000000	1.297332
4766.000000	1.297446
4764.000000	1.297480
4762.000000	1.297431
4760.000000	1.297307
4758.000000	1.297227
4756.000000	1.297317
4754.000000	1.297487
4752.000000	1.297535
4750.000000	1.297477
4748.000000	1.297390
4746.000000	1.297416
4744.000000	1.297486
4742.000000	1.297471
4740.000000	1.297335
4738.000000	1.297296
4736.000000	1.297371
4734.000000	1.297416
4732.000000	1.297315
4730.000000	1.297245
4728.000000	1.297290
4726.000000	1.297421
4724.000000	1.297488
4722.000000	1.297369
4720.000000	1.297156
4718.000000	1.297060
4716.000000	1.297103
4714.000000	1.297204
4712.000000	1.297255
4710.000000	1.297188
4708.000000	1.297236
4706.000000	1.297492
4704.000000	1.297589
4702.000000	1.297488
4700.000000	1.297443
4698.000000	1.297554
4696.000000	1.297652
4694.000000	1.297594
4692.000000	1.297475
4690.000000	1.297393
4688.000000	1.297389
4686.000000	1.297479
4684.000000	1.297595
4682.000000	1.297496
4680.000000	1.297305
4678.000000	1.297294
4676.000000	1.297533
4674.000000	1.297780
4672.000000	1.297783
4670.000000	1.297612
4668.000000	1.297535
4666.000000	1.297551
4664.000000	1.297582
4662.000000	1.297663
4660.000000	1.297771
4658.000000	1.297876
4656.000000	1.297952
4654.000000	1.297951
4652.000000	1.297786
4650.000000	1.297731
4648.000000	1.297873
4646.000000	1.298011
4644.000000	1.297975
4642.000000	1.297948
4640.000000	1.297964
4638.000000	1.298006
4636.000000	1.298058
4634.000000	1.298057
4632.000000	1.297999
4630.000000	1.297936
4628.000000	1.297920
4626.000000	1.297950
4624.000000	1.297925
4622.000000	1.297867
4620.000000	1.297792
4618.000000	1.297713
4616.000000	1.297721
4614.000000	1.297913
4612.000000	1.298052
4610.000000	1.298017
4608.000000	1.297884
4606.000000	1.297712
4604.000000	1.297710
4602.000000	1.297980
4600.000000	1.298244
4598.000000	1.298274
4596.000000	1.298149
4594.000000	1.298010
4592.000000	1.298005
4590.000000	1.298149
4588.000000	1.298260
4586.000000	1.298280
4584.000000	1.298172
4582.000000	1.298008
4580.000000	1.297970
4578.000000	1.298099
4576.000000	1.298189
4574.000000	1.298219
4572.000000	1.298256
4570.000000	1.298301
4568.000000	1.298258
4566.000000	1.298192
4564.000000	1.298166
4562.000000	1.298132
4560.000000	1.298137
4558.000000	1.298208
4556.000000	1.298254
4554.000000	1.298259
4552.000000	1.298293
4550.000000	1.298383
4548.000000	1.298490
4546.000000	1.298479
4544.000000	1.298374
4542.000000	1.298319
4540.000000	1.298323
4538.000000	1.298281
4536.000000	1.298234
4534.000000	1.298235
4532.000000	1.298286
4530.000000	1.298357
4528.000000	1.298393
4526.000000	1.298396
4524.000000	1.298386
4522.000000	1.298322
4520.000000	1.298232
4518.000000	1.298249
4516.000000	1.298328
4514.000000	1.298347
4512.000000	1.298283
4510.000000	1.298199
4508.000000	1.298184
4506.000000	1.298168
4504.000000	1.298152
4502.000000	1.298250
4500.000000	1.298472
4498.000000	1.298595
4496.000000	1.298605
4494.000000	1.298567
4492.000000	1.298552
4490.000000	1.298576
4488.000000	1.298575
4486.000000	1.298482
4484.000000	1.298436
4482.000000	1.298486
4480.000000	1.298468
4478.000000	1.298369
4476.000000	1.298383
4474.000000	1.298580
4472.000000	1.298736
4470.000000	1.298756
4468.000000	1.298766
4466.000000	1.298760
4464.000000	1.298622
4462.000000	1.298560
4460.000000	1.298649
4458.000000	1.298681
4456.000000	1.298660
4454.000000	1.298697
4452.000000	1.298715
4450.000000	1.298704
4448.000000	1.298585
4446.000000	1.298422
4444.000000	1.298331
4442.000000	1.298335
4440.000000	1.298387
4438.000000	1.298568
4436.000000	1.298760
4434.000000	1.298793
4432.000000	1.298695
4430.000000	1.298762
4428.000000	1.298863
4426.000000	1.298803
4424.000000	1.298639
4422.000000	1.298545
4420.000000	1.298554
4418.000000	1.298671
4416.000000	1.298750
4414.000000	1.298828
4412.000000	1.298894
4410.000000	1.298855
4408.000000	1.298703
4406.000000	1.298597
4404.000000	1.298574
4402.000000	1.298562
4400.000000	1.298575
4398.000000	1.298656
4396.000000	1.298715
4394.000000	1.298678
4392.000000	1.298688
4390.000000	1.298824
4388.000000	1.298871
4386.000000	1.298759
4384.000000	1.298753
4382.000000	1.298877
4380.000000	1.298936
4378.000000	1.298931
4376.000000	1.298921
4374.000000	1.298912
4372.000000	1.298828
4370.000000	1.298818
4368.000000	1.298981
4366.000000	1.299106
4364.000000	1.299017
4362.000000	1.298845
4360.000000	1.298749
4358.000000	1.298771
4356.000000	1.298817
4354.000000	1.298830
4352.000000	1.298820
4350.000000	1.298815
4348.000000	1.298846
4346.000000	1.298868
4344.000000	1.298910
4342.000000	1.298956
4340.000000	1.298893
4338.000000	1.298841
4336.000000	1.298961
4334.000000	1.299072
4332.000000	1.299021
4330.000000	1.298938
4328.000000	1.298855
4326.000000	1.298727
4324.000000	1.298645
4322.000000	1.298707
4320.000000	1.298792
4318.000000	1.298723
4316.000000	1.298636
4314.000000	1.298669
4312.000000	1.298728
4310.000000	1.298748
4308.000000	1.298768
4306.000000	1.298766
4304.000000	1.298725
4302.000000	1.298751
4300.000000	1.298893
4298.000000	1.298937
4296.000000	1.298875
4294.000000	1.298855
4292.000000	1.298757
4290.000000	1.298623
4288.000000	1.298647
4286.000000	1.298776
4284.000000	1.298902
4282.000000	1.299014
4280.000000	1.299039
4278.000000	1.298959
4276.000000	1.298877
4274.000000	1.298872
4272.000000	1.298840
4270.000000	1.298771
4268.000000	1.298751
4266.000000	1.298819
4264.000000	1.298866
4262.000000	1.298833
4260.000000	1.298803
4258.000000	1.298905
4256.000000	1.298971
4254.000000	1.298915
4252.000000	1.298844
4250.000000	1.298734
4248.000000	1.298637
4246.000000	1.298683
4244.000000	1.298678
4242.000000	1.298639
4240.000000	1.298731
4238.000000	1.298753
4236.000000	1.298654
4234.000000	1.298680
4232.000000	1.298786
4230.000000	1.298739
4228.000000	1.298558
4226.000000	1.298465
4224.000000	1.298505
4222.000000	1.298583
4220.000000	1.298621
4218.000000	1.298654
4216.000000	1.298640
4214.000000	1.298584
4212.000000	1.298565
4210.000000	1.298574
4208.000000	1.298497
4206.000000	1.298488
4204.000000	1.298527
4202.000000	1.298516
4200.000000	1.298587
4198.000000	1.298721
4196.000000	1.298735
4194.000000	1.298713
4192.000000	1.298707
4190.000000	1.298731
4188.000000	1.298703
4186.000000	1.298613
4184.000000	1.298656
4182.000000	1.298767
4180.000000	1.298695
4178.000000	1.298594
4176.000000	1.298640
4174.000000	1.298620
4172.000000	1.298529
4170.000000	1.298531
4168.000000	1.298585
4166.000000	1.298648
4164.000000	1.298681
4162.000000	1.298666
4160.000000	1.298675
4158.000000	1.298685
4156.000000	1.298613
4154.000000	1.298500
4152.000000	1.298439
4150.000000	1.298342
4148.000000	1.298226
4146.000000	1.298274
4144.000000	1.298327
4142.000000	1.298255
4140.000000	1.298324
4138.000000	1.298526
4136.000000	1.298461
4134.000000	1.298246
4132.000000	1.298176
4130.000000	1.298184
4128.000000	1.298195
4126.000000	1.298213
4124.000000	1.298247
4122.000000	1.298244
4120.000000	1.298138
4118.000000	1.298022
4116.000000	1.297984
4114.000000	1.298070
4112.000000	1.298132
4110.000000	1.298051
4108.000000	1.298011
4106.000000	1.298077
4104.000000	1.298093
4102.000000	1.298017
4100.000000	1.297906
4098.000000	1.297914
4096.000000	1.298055
4094.000000	1.298110
4092.000000	1.297967
4090.000000	1.297805
4088.000000	1.297816
4086.000000	1.297969
4084.000000	1.298029
4082.000000	1.297956
4080.000000	1.297856
4078.000000	1.297829
4076.000000	1.297931
4074.000000	1.298053
4072.000000	1.297978
4070.000000	1.297850
4068.000000	1.297836
4066.000000	1.297790
4064.000000	1.297688
4062.000000	1.297672
4060.000000	1.297686
4058.000000	1.297715
4056.000000	1.297758
4054.000000	1.297753
4052.000000	1.297678
4050.000000	1.297561
4048.000000	1.297503
4046.000000	1.297492
4044.000000	1.297453
4042.000000	1.297418
4040.000000	1.297420
4038.000000	1.297446
4036.000000	1.297416
4034.000000	1.297404
4032.000000	1.297397
4030.000000	1.297348
4028.000000	1.297334
4026.000000	1.297334
4024.000000	1.297295
4022.000000	1.297132
4020.000000	1.296958
4018.000000	1.297045
4016.000000	1.297197
4014.000000	1.297139
4012.000000	1.296990
4010.000000	1.296977
4008.000000	1.297052
4006.000000	1.297069
4004.000000	1.297040
4002.000000	1.297103
4000.000000	1.297213
3998.000000	1.297208
3996.000000	1.297113
3994.000000	1.297118
3992.000000	1.297133
3990.000000	1.297055
3988.000000	1.296944
3986.000000	1.296927
3984.000000	1.296983
3982.000000	1.296975
3980.000000	1.296944
3978.000000	1.296951
3976.000000	1.296916
3974.000000	1.296865
3972.000000	1.296800
3970.000000	1.296719
3968.000000	1.296669
3966.000000	1.296589
3964.000000	1.296416
3962.000000	1.296367
3960.000000	1.296473
3958.000000	1.296526
3956.000000	1.296450
3954.000000	1.296241
3952.000000	1.295920
3950.000000	1.295787
3948.000000	1.296024
3946.000000	1.296081
3944.000000	1.295838
3942.000000	1.296054
3940.000000	1.296410
3938.000000	1.296243
3936.000000	1.295716
3934.000000	1.295215
3932.000000	1.295358
3930.000000	1.295949
3928.000000	1.295908
3926.000000	1.295506
3924.000000	1.295583
3922.000000	1.295507
3920.000000	1.294874
3918.000000	1.294830
3916.000000	1.295768
3914.000000	1.296395
3912.000000	1.296154
3910.000000	1.295663
3908.000000	1.294467
3906.000000	1.292576
3904.000000	1.291938
3902.000000	1.292939
3900.000000	1.294450
3898.000000	1.295937
3896.000000	1.295915
3894.000000	1.293986
3892.000000	1.293257
3890.000000	1.294356
3888.000000	1.293446
3886.000000	1.292596
3884.000000	1.294262
3882.000000	1.294597
3880.000000	1.294622
3878.000000	1.295323
3876.000000	1.294327
3874.000000	1.292799
3872.000000	1.291199
3870.000000	1.291674
3868.000000	1.293936
3866.000000	1.293656
3864.000000	1.293370
3862.000000	1.294738
3860.000000	1.294820
3858.000000	1.290976
3856.000000	1.283686
3854.000000	1.283386
3852.000000	1.292882
3850.000000	1.298511
3848.000000	1.296663
3846.000000	1.293960
3844.000000	1.292634
3842.000000	1.291180
3840.000000	1.288643
3838.000000	1.289150
3836.000000	1.293140
3834.000000	1.294572
3832.000000	1.294018
3830.000000	1.294322
3828.000000	1.294147
3826.000000	1.293252
3824.000000	1.290908
3822.000000	1.289508
3820.000000	1.291149
3818.000000	1.290641
3816.000000	1.291143
3814.000000	1.295479
3812.000000	1.295927
3810.000000	1.292243
3808.000000	1.290234
3806.000000	1.291504
3804.000000	1.290460
3802.000000	1.289091
3800.000000	1.292877
3798.000000	1.294950
3796.000000	1.294234
3794.000000	1.294663
3792.000000	1.294674
3790.000000	1.294197
3788.000000	1.293840
3786.000000	1.293638
3784.000000	1.293675
3782.000000	1.293155
3780.000000	1.292813
3778.000000	1.293847
3776.000000	1.294493
3774.000000	1.293590
3772.000000	1.291982
3770.000000	1.291690
3768.000000	1.292711
3766.000000	1.293232
3764.000000	1.293391
3762.000000	1.292554
3760.000000	1.291650
3758.000000	1.292180
3756.000000	1.290871
3754.000000	1.286158
3752.000000	1.283875
3750.000000	1.287324
3748.000000	1.288680
3746.000000	1.284987
3744.000000	1.287900
3742.000000	1.294568
3740.000000	1.292660
3738.000000	1.287872
3736.000000	1.287495
3734.000000	1.289477
3732.000000	1.291488
3730.000000	1.292847
3728.000000	1.291982
3726.000000	1.291116
3724.000000	1.291548
3722.000000	1.292009
3720.000000	1.292442
3718.000000	1.292467
3716.000000	1.290945
3714.000000	1.287986
3712.000000	1.287758
3710.000000	1.290907
3708.000000	1.292920
3706.000000	1.292424
3704.000000	1.290915
3702.000000	1.290772
3700.000000	1.292021
3698.000000	1.292257
3696.000000	1.291550
3694.000000	1.290078
3692.000000	1.287149
3690.000000	1.285406
3688.000000	1.288859
3686.000000	1.293110
3684.000000	1.292591
3682.000000	1.290586
3680.000000	1.288519
3678.000000	1.284786
3676.000000	1.284257
3674.000000	1.287694
3672.000000	1.287131
3670.000000	1.287232
3668.000000	1.291132
3666.000000	1.291990
3664.000000	1.290719
3662.000000	1.290098
3660.000000	1.288955
3658.000000	1.287207
3656.000000	1.287757
3654.000000	1.288116
3652.000000	1.284330
3650.000000	1.282662
3648.000000	1.286785
3646.000000	1.290355
3644.000000	1.290266
3642.000000	1.289322
3640.000000	1.288965
3638.000000	1.288606
3636.000000	1.288031
3634.000000	1.287088
3632.000000	1.284258
3630.000000	1.282119
3628.000000	1.285934
3626.000000	1.289783
3624.000000	1.288522
3622.000000	1.285725
3620.000000	1.284718
3618.000000	1.286296
3616.000000	1.286954
3614.000000	1.285831
3612.000000	1.285167
3610.000000	1.285117
3608.000000	1.286345
3606.000000	1.287721
3604.000000	1.287354
3602.000000	1.286545
3600.000000	1.286391
3598.000000	1.286198
3596.000000	1.285854
3594.000000	1.286107
3592.000000	1.285832
3590.000000	1.284249
3588.000000	1.284015
3586.000000	1.285934
3584.000000	1.286996
3582.000000	1.286550
3580.000000	1.286170
3578.000000	1.286137
3576.000000	1.286092
3574.000000	1.285978
3572.000000	1.285355
3570.000000	1.283929
3568.000000	1.283397
3566.000000	1.284904
3564.000000	1.286143
3562.000000	1.286044
3560.000000	1.285852
3558.000000	1.285862
3556.000000	1.285641
3554.000000	1.285307
3552.000000	1.285376
3550.000000	1.285427
3548.000000	1.285019
3546.000000	1.285085
3544.000000	1.285709
3542.000000	1.286095
3540.000000	1.286011
3538.000000	1.285837
3536.000000	1.285996
3534.000000	1.286220
3532.000000	1.286079
3530.000000	1.285851
3528.000000	1.285901
3526.000000	1.285979
3524.000000	1.286040
3522.000000	1.286449
3520.000000	1.286808
3518.000000	1.286937
3516.000000	1.287056
3514.000000	1.287036
3512.000000	1.286908
3510.000000	1.287064
3508.000000	1.287419
3506.000000	1.287383
3504.000000	1.287272
3502.000000	1.287663
3500.000000	1.288104
3498.000000	1.288250
3496.000000	1.288433
3494.000000	1.288699
3492.000000	1.288905
3490.000000	1.289054
3488.000000	1.289241
3486.000000	1.289552
3484.000000	1.289802
3482.000000	1.290048
3480.000000	1.290416
3478.000000	1.290743
3476.000000	1.290989
3474.000000	1.291323
3472.000000	1.291767
3470.000000	1.292083
3468.000000	1.292292
3466.000000	1.292658
3464.000000	1.293116
3462.000000	1.293577
3460.000000	1.294048
3458.000000	1.294497
3456.000000	1.294918
3454.000000	1.295301
3452.000000	1.295662
3450.000000	1.295924
3448.000000	1.296191
3446.000000	1.296865
3444.000000	1.297516
3442.000000	1.297918
3440.000000	1.298395
3438.000000	1.298886
3436.000000	1.299325
3434.000000	1.299877
3432.000000	1.300483
3430.000000	1.301032
3428.000000	1.301506
3426.000000	1.301874
3424.000000	1.302164
3422.000000	1.302446
3420.000000	1.302885
3418.000000	1.303440
3416.000000	1.303756
3414.000000	1.303911
3412.000000	1.304180
3410.000000	1.304482
3408.000000	1.304830
3406.000000	1.305178
3404.000000	1.305392
3402.000000	1.305522
3400.000000	1.305686
3398.000000	1.306072
3396.000000	1.306458
3394.000000	1.306501
3392.000000	1.306492
3390.000000	1.306786
3388.000000	1.307103
3386.000000	1.307287
3384.000000	1.307500
3382.000000	1.307675
3380.000000	1.307680
3378.000000	1.307710
3376.000000	1.307900
3374.000000	1.308047
3372.000000	1.308008
3370.000000	1.307968
3368.000000	1.308130
3366.000000	1.308397
3364.000000	1.308604
3362.000000	1.308740
3360.000000	1.308816
3358.000000	1.308896
3356.000000	1.309011
3354.000000	1.309199
3352.000000	1.309307
3350.000000	1.309302
3348.000000	1.309429
3346.000000	1.309648
3344.000000	1.309720
3342.000000	1.309724
3340.000000	1.309721
3338.000000	1.309739
3336.000000	1.309860
3334.000000	1.309985
3332.000000	1.310091
3330.000000	1.310192
3328.000000	1.310208
3326.000000	1.310209
3324.000000	1.310291
3322.000000	1.310409
3320.000000	1.310543
3318.000000	1.310553
3316.000000	1.310574
3314.000000	1.310661
3312.000000	1.310696
3310.000000	1.310725
3308.000000	1.310716
3306.000000	1.310703
3304.000000	1.310827
3302.000000	1.311011
3300.000000	1.311131
3298.000000	1.311204
3296.000000	1.311139
3294.000000	1.311019
3292.000000	1.311048
3290.000000	1.311277
3288.000000	1.311478
3286.000000	1.311558
3284.000000	1.311597
3282.000000	1.311751
3280.000000	1.311849
3278.000000	1.311839
3276.000000	1.311888
3274.000000	1.311919
3272.000000	1.311907
3270.000000	1.312029
3268.000000	1.312189
3266.000000	1.312260
3264.000000	1.312298
3262.000000	1.312313
3260.000000	1.312390
3258.000000	1.312483
3256.000000	1.312483
3254.000000	1.312568
3252.000000	1.312715
3250.000000	1.312743
3248.000000	1.312675
3246.000000	1.312737
3244.000000	1.312948
3242.000000	1.313005
3240.000000	1.312943
3238.000000	1.313010
3236.000000	1.313129
3234.000000	1.313138
3232.000000	1.313203
3230.000000	1.313443
3228.000000	1.313625
3226.000000	1.313689
3224.000000	1.313724
3222.000000	1.313708
3220.000000	1.313667
3218.000000	1.313721
3216.000000	1.313841
3214.000000	1.313879
3212.000000	1.313831
3210.000000	1.313976
3208.000000	1.314182
3206.000000	1.314264
3204.000000	1.314295
3202.000000	1.314297
3200.000000	1.314244
3198.000000	1.314291
3196.000000	1.314492
3194.000000	1.314532
3192.000000	1.314446
3190.000000	1.314513
3188.000000	1.314525
3186.000000	1.314539
3184.000000	1.314630
3182.000000	1.314596
3180.000000	1.314572
3178.000000	1.314748
3176.000000	1.314915
3174.000000	1.314877
3172.000000	1.314884
3170.000000	1.314938
3168.000000	1.314970
3166.000000	1.314994
3164.000000	1.315024
3162.000000	1.315073
3160.000000	1.315146
3158.000000	1.315237
3156.000000	1.315300
3154.000000	1.315291
3152.000000	1.315339
3150.000000	1.315493
3148.000000	1.315588
3146.000000	1.315568
3144.000000	1.315593
3142.000000	1.315696
3140.000000	1.315766
3138.000000	1.315835
3136.000000	1.315854
3134.000000	1.315897
3132.000000	1.316042
3130.000000	1.316066
3128.000000	1.316078
3126.000000	1.316198
3124.000000	1.316210
3122.000000	1.316176
3120.000000	1.316149
3118.000000	1.316152
3116.000000	1.316253
3114.000000	1.316383
3112.000000	1.316457
3110.000000	1.316420
3108.000000	1.316424
3106.000000	1.316494
3104.000000	1.316455
3102.000000	1.316333
3100.000000	1.316300
3098.000000	1.316330
3096.000000	1.316355
3094.000000	1.316321
3092.000000	1.316253
3090.000000	1.316209
3088.000000	1.316163
3086.000000	1.316121
3084.000000	1.316036
3082.000000	1.315952
3080.000000	1.315844
3078.000000	1.315804
3076.000000	1.315798
3074.000000	1.315714
3072.000000	1.315530
3070.000000	1.315416
3068.000000	1.315480
3066.000000	1.315478
3064.000000	1.315382
3062.000000	1.315319
3060.000000	1.315289
3058.000000	1.315269
3056.000000	1.315267
3054.000000	1.315271
3052.000000	1.315221
3050.000000	1.315132
3048.000000	1.315005
3046.000000	1.314853
3044.000000	1.314766
3042.000000	1.314747
3040.000000	1.314764
3038.000000	1.314727
3036.000000	1.314605
3034.000000	1.314502
3032.000000	1.314448
3030.000000	1.314412
3028.000000	1.314379
3026.000000	1.314243
3024.000000	1.314055
3022.000000	1.314010
3020.000000	1.314127
3018.000000	1.314397
3016.000000	1.314752
3014.000000	1.314998
3012.000000	1.315067
3010.000000	1.314973
3008.000000	1.314812
3006.000000	1.314649
3004.000000	1.314460
3002.000000	1.314293
3000.000000	1.314214
2998.000000	1.314213
2996.000000	1.314165
2994.000000	1.314085
2992.000000	1.314008
2990.000000	1.313863
2988.000000	1.313766
2986.000000	1.313680
2984.000000	1.313582
2982.000000	1.313643
2980.000000	1.313689
2978.000000	1.313582
2976.000000	1.313445
2974.000000	1.313321
2972.000000	1.313305
2970.000000	1.313391
2968.000000	1.313656
2966.000000	1.314260
2964.000000	1.315123
2962.000000	1.315884
2960.000000	1.316224
2958.000000	1.316171
2956.000000	1.315910
2954.000000	1.315454
2952.000000	1.314886
2950.000000	1.314344
2948.000000	1.313743
2946.000000	1.313182
2944.000000	1.312768
2942.000000	1.312446
2940.000000	1.312193
2938.000000	1.312107
2936.000000	1.312238
2934.000000	1.312351
2932.000000	1.312334
2930.000000	1.312368
2928.000000	1.312657
2926.000000	1.313292
2924.000000	1.314213
2922.000000	1.315207
2920.000000	1.315891
2918.000000	1.316114
2916.000000	1.316128
2914.000000	1.315924
2912.000000	1.315490
2910.000000	1.315000
2908.000000	1.314593
2906.000000	1.314356
2904.000000	1.314243
2902.000000	1.314200
2900.000000	1.314084
2898.000000	1.313902
2896.000000	1.313786
2894.000000	1.313752
2892.000000	1.313668
2890.000000	1.313559
2888.000000	1.313492
2886.000000	1.313346
2884.000000	1.313153
2882.000000	1.312899
2880.000000	1.312628
2878.000000	1.312413
2876.000000	1.312228
2874.000000	1.312030
2872.000000	1.311746
2870.000000	1.311376
2868.000000	1.310932
2866.000000	1.310624
2864.000000	1.310810
2862.000000	1.311512
2860.000000	1.312330
2858.000000	1.313011
2856.000000	1.313408
2854.000000	1.313558
2852.000000	1.313711
2850.000000	1.314008
2848.000000	1.314218
2846.000000	1.314064
2844.000000	1.313741
2842.000000	1.313496
2840.000000	1.313217
2838.000000	1.312977
2836.000000	1.312854
2834.000000	1.312784
2832.000000	1.312731
2830.000000	1.312633
2828.000000	1.312574
2826.000000	1.312598
2824.000000	1.312587
2822.000000	1.312455
2820.000000	1.312369
2818.000000	1.312385
2816.000000	1.312380
2814.000000	1.312316
2812.000000	1.312270
2810.000000	1.312239
2808.000000	1.312143
2806.000000	1.312049
2804.000000	1.312090
2802.000000	1.312203
2800.000000	1.312176
2798.000000	1.312098
2796.000000	1.312116
2794.000000	1.312092
2792.000000	1.312048
2790.000000	1.312069
2788.000000	1.312109
2786.000000	1.312167
2784.000000	1.312146
2782.000000	1.312026
2780.000000	1.312004
2778.000000	1.312052
2776.000000	1.312076
2774.000000	1.312065
2772.000000	1.312061
2770.000000	1.311996
2768.000000	1.311941
2766.000000	1.311915
2764.000000	1.311863
2762.000000	1.311839
2760.000000	1.311825
2758.000000	1.311834
2756.000000	1.311868
2754.000000	1.311866
2752.000000	1.311923
2750.000000	1.312005
2748.000000	1.311999
2746.000000	1.311912
2744.000000	1.311844
2742.000000	1.311906
2740.000000	1.312050
2738.000000	1.312058
2736.000000	1.312061
2734.000000	1.312122
2732.000000	1.312139
2730.000000	1.312047
2728.000000	1.312037
2726.000000	1.312119
2724.000000	1.312219
2722.000000	1.312213
2720.000000	1.312214
2718.000000	1.312324
2716.000000	1.312378
2714.000000	1.312415
2712.000000	1.312488
2710.000000	1.312531
2708.000000	1.312624
2706.000000	1.312676
2704.000000	1.312734
2702.000000	1.312857
2700.000000	1.312975
2698.000000	1.313091
2696.000000	1.313184
2694.000000	1.313201
2692.000000	1.313291
2690.000000	1.313429
2688.000000	1.313479
2686.000000	1.313514
2684.000000	1.313631
2682.000000	1.313742
2680.000000	1.313770
2678.000000	1.313778
2676.000000	1.313849
2674.000000	1.313990
2672.000000	1.314172
2670.000000	1.314307
2668.000000	1.314328
2666.000000	1.314381
2664.000000	1.314488
2662.000000	1.314540
2660.000000	1.314554
2658.000000	1.314595
2656.000000	1.314752
2654.000000	1.314914
2652.000000	1.314970
2650.000000	1.314982
2648.000000	1.315030
2646.000000	1.315136
2644.000000	1.315217
2642.000000	1.315230
2640.000000	1.315328
2638.000000	1.315475
2636.000000	1.315527
2634.000000	1.315494
2632.000000	1.315457
2630.000000	1.315392
2628.000000	1.315410
2626.000000	1.315466
2624.000000	1.315543
2622.000000	1.315597
2620.000000	1.315614
2618.000000	1.315681
2616.000000	1.315712
2614.000000	1.315697
2612.000000	1.315755
2610.000000	1.315834
2608.000000	1.315902
2606.000000	1.315870
2604.000000	1.315831
2602.000000	1.315872
2600.000000	1.315929
2598.000000	1.315942
2596.000000	1.316015
2594.000000	1.316080
2592.000000	1.316067
2590.000000	1.316102
2588.000000	1.316219
2586.000000	1.316307
2584.000000	1.316292
2582.000000	1.316228
2580.000000	1.316296
2578.000000	1.316382
2576.000000	1.316384
2574.000000	1.316337
2572.000000	1.316317
2570.000000	1.316344
2568.000000	1.316370
2566.000000	1.316406
2564.000000	1.316452
2562.000000	1.316500
2560.000000	1.316552
2558.000000	1.316635
2556.000000	1.316677
2554.000000	1.316596
2552.000000	1.316532
2550.000000	1.316540
2548.000000	1.316594
2546.000000	1.316572
2544.000000	1.316594
2542.000000	1.316630
2540.000000	1.316611
2538.000000	1.316580
2536.000000	1.316551
2534.000000	1.316547
2532.000000	1.316604
2530.000000	1.316599
2528.000000	1.316607
2526.000000	1.316658
2524.000000	1.316638
2522.000000	1.316565
2520.000000	1.316554
2518.000000	1.316603
2516.000000	1.316589
2514.000000	1.316569
2512.000000	1.316612
2510.000000	1.316623
2508.000000	1.316598
2506.000000	1.316587
2504.000000	1.316593
2502.000000	1.316579
2500.000000	1.316588
2498.000000	1.316565
2496.000000	1.316541
2494.000000	1.316518
2492.000000	1.316522
2490.000000	1.316567
2488.000000	1.316608
2486.000000	1.316622
2484.000000	1.316612
2482.000000	1.316618
2480.000000	1.316615
2478.000000	1.316609
2476.000000	1.316622
2474.000000	1.316644
2472.000000	1.316708
2470.000000	1.316772
2468.000000	1.316801
2466.000000	1.316730
2464.000000	1.316701
2462.000000	1.316743
2460.000000	1.316735
2458.000000	1.316697
2456.000000	1.316733
2454.000000	1.316748
2452.000000	1.316739
2450.000000	1.316799
2448.000000	1.316847
2446.000000	1.316801
2444.000000	1.316713
2442.000000	1.316708
2440.000000	1.316775
2438.000000	1.316782
2436.000000	1.316797
2434.000000	1.316746
2432.000000	1.316754
2430.000000	1.316829
2428.000000	1.316819
2426.000000	1.316720
2424.000000	1.316685
2422.000000	1.316744
2420.000000	1.316831
2418.000000	1.316878
2416.000000	1.316895
2414.000000	1.316892
2412.000000	1.316929
2410.000000	1.316929
2408.000000	1.316873
2406.000000	1.316855
2404.000000	1.316870
2402.000000	1.316833
2400.000000	1.316754
2398.000000	1.316766
2396.000000	1.316814
2394.000000	1.316806
2392.000000	1.316803
2390.000000	1.316735
2388.000000	1.316698
2386.000000	1.316694
2384.000000	1.316660
2382.000000	1.316524
2380.000000	1.316321
2378.000000	1.316057
2376.000000	1.315688
2374.000000	1.315232
2372.000000	1.314826
2370.000000	1.314556
2368.000000	1.314388
2366.000000	1.314231
2364.000000	1.314154
2362.000000	1.314319
2360.000000	1.314657
2358.000000	1.315044
2356.000000	1.315527
2354.000000	1.316026
2352.000000	1.316446
2350.000000	1.316385
2348.000000	1.315670
2346.000000	1.315085
2344.000000	1.315188
2342.000000	1.315789
2340.000000	1.316523
2338.000000	1.316859
2336.000000	1.316560
2334.000000	1.316085
2332.000000	1.315893
2330.000000	1.315934
2328.000000	1.316027
2326.000000	1.316104
2324.000000	1.316213
2322.000000	1.316421
2320.000000	1.316579
2318.000000	1.316613
2316.000000	1.316658
2314.000000	1.316729
2312.000000	1.316843
2310.000000	1.316854
2308.000000	1.316831
2306.000000	1.316858
2304.000000	1.316947
2302.000000	1.317043
2300.000000	1.317065
2298.000000	1.317013
2296.000000	1.316971
2294.000000	1.316981
2292.000000	1.317037
2290.000000	1.317092
2288.000000	1.317101
2286.000000	1.317096
2284.000000	1.317130
2282.000000	1.317151
2280.000000	1.317165
2278.000000	1.317172
2276.000000	1.317182
2274.000000	1.317158
2272.000000	1.317156
2270.000000	1.317168
2268.000000	1.317166
2266.000000	1.317133
2264.000000	1.317107
2262.000000	1.317082
2260.000000	1.317086
2258.000000	1.317067
2256.000000	1.317031
2254.000000	1.317002
2252.000000	1.316976
2250.000000	1.316964
2248.000000	1.316954
2246.000000	1.316944
2244.000000	1.316916
2242.000000	1.316803
2240.000000	1.316738
2238.000000	1.316786
2236.000000	1.316772
2234.000000	1.316615
2232.000000	1.316548
2230.000000	1.316485
2228.000000	1.316425
2226.000000	1.316437
2224.000000	1.316463
2222.000000	1.316448
2220.000000	1.316444
2218.000000	1.316341
2216.000000	1.316260
2214.000000	1.316199
2212.000000	1.316103
2210.000000	1.316069
2208.000000	1.316130
2206.000000	1.316092
2204.000000	1.316010
2202.000000	1.315960
2200.000000	1.315917
2198.000000	1.315912
2196.000000	1.315909
2194.000000	1.315758
2192.000000	1.315689
2190.000000	1.315702
2188.000000	1.315630
2186.000000	1.315567
2184.000000	1.315543
2182.000000	1.315571
2180.000000	1.315609
2178.000000	1.315550
2176.000000	1.315430
2174.000000	1.315344
2172.000000	1.315348
2170.000000	1.315374
2168.000000	1.315400
2166.000000	1.315326
2164.000000	1.315247
2162.000000	1.315177
2160.000000	1.315189
2158.000000	1.315119
2156.000000	1.315031
2154.000000	1.314934
2152.000000	1.314918
2150.000000	1.314880
2148.000000	1.314845
2146.000000	1.314834
2144.000000	1.314774
2142.000000	1.314693
2140.000000	1.314706
2138.000000	1.314709
2136.000000	1.314664
2134.000000	1.314610
2132.000000	1.314549
2130.000000	1.314521
2128.000000	1.314508
2126.000000	1.314429
2124.000000	1.314394
2122.000000	1.314350
2120.000000	1.314335
2118.000000	1.314316
2116.000000	1.314336
2114.000000	1.314421
2112.000000	1.314486
2110.000000	1.314439
2108.000000	1.314299
2106.000000	1.314162
2104.000000	1.314144
2102.000000	1.314145
2100.000000	1.314138
2098.000000	1.314090
2096.000000	1.314041
2094.000000	1.314005
2092.000000	1.313967
2090.000000	1.313959
2088.000000	1.314043
2086.000000	1.314017
2084.000000	1.313909
2082.000000	1.313839
2080.000000	1.313837
2078.000000	1.313790
2076.000000	1.313809
2074.000000	1.313841
2072.000000	1.313828
2070.000000	1.313818
2068.000000	1.313782
2066.000000	1.313653
2064.000000	1.313625
2062.000000	1.313611
2060.000000	1.313621
2058.000000	1.313586
2056.000000	1.313529
2054.000000	1.313548
2052.000000	1.313591
2050.000000	1.313537
2048.000000	1.313512
2046.000000	1.313493
2044.000000	1.313465
2042.000000	1.313383
2040.000000	1.313436
2038.000000	1.313440
2036.000000	1.313329
2034.000000	1.313302
2032.000000	1.313324
2030.000000	1.313291
2028.000000	1.313314
2026.000000	1.313250
2024.000000	1.313186
2022.000000	1.313195
2020.000000	1.313117
2018.000000	1.312980
2016.000000	1.313062
2014.000000	1.313154
2012.000000	1.313151
2010.000000	1.313112
2008.000000	1.313106
2006.000000	1.313058
2004.000000	1.313071
2002.000000	1.313067
2000.000000	1.313033
1998.000000	1.312954
1996.000000	1.312931
1994.000000	1.312718
1992.000000	1.312657
1990.000000	1.312900
1988.000000	1.312957
1986.000000	1.312954
1984.000000	1.312936
1982.000000	1.312867
1980.000000	1.312842
1978.000000	1.312855
1976.000000	1.312838
1974.000000	1.312786
1972.000000	1.312794
1970.000000	1.312724
1968.000000	1.312609
1966.000000	1.312787
1964.000000	1.312867
1962.000000	1.312712
1960.000000	1.312692
1958.000000	1.312990
1956.000000	1.313037
1954.000000	1.312876
1952.000000	1.312832
1950.000000	1.312847
1948.000000	1.312897
1946.000000	1.312716
1944.000000	1.312387
1942.000000	1.312609
1940.000000	1.313042
1938.000000	1.312986
1936.000000	1.313002
1934.000000	1.313001
1932.000000	1.312991
1930.000000	1.312982
1928.000000	1.313032
1926.000000	1.312898
1924.000000	1.312658
1922.000000	1.312748
1920.000000	1.312388
1918.000000	1.312293
1916.000000	1.313217
1914.000000	1.313338
1912.000000	1.313134
1910.000000	1.312999
1908.000000	1.313185
1906.000000	1.313349
1904.000000	1.313500
1902.000000	1.313452
1900.000000	1.313476
1898.000000	1.313364
1896.000000	1.313245
1894.000000	1.313340
1892.000000	1.313137
1890.000000	1.312963
1888.000000	1.313611
1886.000000	1.313608
1884.000000	1.313533
1882.000000	1.313610
1880.000000	1.313670
1878.000000	1.313575
1876.000000	1.313529
1874.000000	1.313426
1872.000000	1.312807
1870.000000	1.311820
1868.000000	1.312593
1866.000000	1.313574
1864.000000	1.313697
1862.000000	1.313532
1860.000000	1.313572
1858.000000	1.313589
1856.000000	1.313671
1854.000000	1.313625
1852.000000	1.313713
1850.000000	1.313434
1848.000000	1.312823
1846.000000	1.311104
1844.000000	1.311517
1842.000000	1.313798
1840.000000	1.313899
1838.000000	1.313543
1836.000000	1.313617
1834.000000	1.313452
1832.000000	1.312385
1830.000000	1.312200
1828.000000	1.313104
1826.000000	1.312765
1824.000000	1.313371
1822.000000	1.313921
1820.000000	1.313874
1818.000000	1.313849
1816.000000	1.314022
1814.000000	1.313772
1812.000000	1.313433
1810.000000	1.313566
1808.000000	1.313919
1806.000000	1.313844
1804.000000	1.313444
1802.000000	1.312829
1800.000000	1.313148
1798.000000	1.313575
1796.000000	1.312977
1794.000000	1.311065
1792.000000	1.311663
1790.000000	1.313829
1788.000000	1.313918
1786.000000	1.313143
1784.000000	1.313496
1782.000000	1.313494
1780.000000	1.313585
1778.000000	1.313749
1776.000000	1.312566
1774.000000	1.309944
1772.000000	1.310773
1770.000000	1.312943
1768.000000	1.313306
1766.000000	1.314310
1764.000000	1.313084
1762.000000	1.312540
1760.000000	1.313777
1758.000000	1.313412
1756.000000	1.313749
1754.000000	1.313010
1752.000000	1.310943
1750.000000	1.312209
1748.000000	1.313651
1746.000000	1.314013
1744.000000	1.313770
1742.000000	1.312934
1740.000000	1.312766
1738.000000	1.313371
1736.000000	1.308876
1734.000000	1.308382
1732.000000	1.314044
1730.000000	1.315213
1728.000000	1.315418
1726.000000	1.315350
1724.000000	1.315182
1722.000000	1.314583
1720.000000	1.310892
1718.000000	1.308447
1716.000000	1.312489
1714.000000	1.315168
1712.000000	1.315832
1710.000000	1.315262
1708.000000	1.314364
1706.000000	1.313599
1704.000000	1.313390
1702.000000	1.308204
1700.000000	1.308506
1698.000000	1.310551
1696.000000	1.310335
1694.000000	1.316104
1692.000000	1.316798
1690.000000	1.315637
1688.000000	1.313610
1686.000000	1.307903
1684.000000	1.310189
1682.000000	1.316362
1680.000000	1.316571
1678.000000	1.314975
1676.000000	1.312994
1674.000000	1.314977
1672.000000	1.314548
1670.000000	1.313502
1668.000000	1.316084
1666.000000	1.316891
1664.000000	1.315185
1662.000000	1.316133
1660.000000	1.317463
1658.000000	1.316506
1656.000000	1.310459
1654.000000	1.303675
1652.000000	1.311460
1650.000000	1.316917
1648.000000	1.312821
1646.000000	1.313958
1644.000000	1.317868
1642.000000	1.318131
1640.000000	1.316954
1638.000000	1.313573
1636.000000	1.312042
1634.000000	1.316909
1632.000000	1.318618
1630.000000	1.317240
1628.000000	1.316904
1626.000000	1.316507
1624.000000	1.315575
1622.000000	1.316961
1620.000000	1.316263
1618.000000	1.312557
1616.000000	1.314757
1614.000000	1.318251
1612.000000	1.317676
1610.000000	1.317818
1608.000000	1.318547
1606.000000	1.319346
1604.000000	1.319514
1602.000000	1.319742
1600.000000	1.319821
1598.000000	1.319846
1596.000000	1.319637
1594.000000	1.319720
1592.000000	1.319629
1590.000000	1.319557
1588.000000	1.319581
1586.000000	1.319535
1584.000000	1.319535
1582.000000	1.319659
1580.000000	1.318618
1578.000000	1.314378
1576.000000	1.314639
1574.000000	1.319520
1572.000000	1.318054
1570.000000	1.316737
1568.000000	1.318561
1566.000000	1.318924
1564.000000	1.317951
1562.000000	1.312479
1560.000000	1.306379
1558.000000	1.312193
1556.000000	1.317119
1554.000000	1.317943
1552.000000	1.319192
1550.000000	1.319241
1548.000000	1.318977
1546.000000	1.317036
1544.000000	1.314629
1542.000000	1.310846
1540.000000	1.310714
1538.000000	1.317550
1536.000000	1.318883
1534.000000	1.317015
1532.000000	1.318889
1530.000000	1.318929
1528.000000	1.317302
1526.000000	1.316555
1524.000000	1.314883
1522.000000	1.312698
1520.000000	1.315733
1518.000000	1.316934
1516.000000	1.317429
1514.000000	1.318143
1512.000000	1.317683
1510.000000	1.315139
1508.000000	1.309780
1506.000000	1.311986
1504.000000	1.317883
1502.000000	1.316881
1500.000000	1.313310
1498.000000	1.310709
1496.000000	1.313508
1494.000000	1.319355
1492.000000	1.320673
1490.000000	1.320551
1488.000000	1.321229
1486.000000	1.321525
1484.000000	1.321183
1482.000000	1.320306
1480.000000	1.319906
1478.000000	1.318505
1476.000000	1.316682
1474.000000	1.314765
1472.000000	1.316490
1470.000000	1.319399
1468.000000	1.318756
1466.000000	1.317025
1464.000000	1.317943
1462.000000	1.318470
1460.000000	1.314687
1458.000000	1.310195
1456.000000	1.313538
1454.000000	1.317848
1452.000000	1.318493
1450.000000	1.319647
1448.000000	1.320446
1446.000000	1.320831
1444.000000	1.320130
1442.000000	1.319673
1440.000000	1.318334
1438.000000	1.315630
1436.000000	1.316878
1434.000000	1.319216
1432.000000	1.318482
1430.000000	1.318479
1428.000000	1.319079
1426.000000	1.318876
1424.000000	1.318411
1422.000000	1.317071
1420.000000	1.314942
1418.000000	1.317141
1416.000000	1.318900
1414.000000	1.318916
1412.000000	1.318553
1410.000000	1.318278
1408.000000	1.317622
1406.000000	1.317355
1404.000000	1.318347
1402.000000	1.319104
1400.000000	1.318584
1398.000000	1.318799
1396.000000	1.318126
1394.000000	1.318559
1392.000000	1.319332
1390.000000	1.318206
1388.000000	1.317047
1386.000000	1.317959
1384.000000	1.319002
1382.000000	1.319300
1380.000000	1.318944
1378.000000	1.318588
1376.000000	1.318046
1374.000000	1.318012
1372.000000	1.318513
1370.000000	1.318499
1368.000000	1.318474
1366.000000	1.318191
1364.000000	1.317346
1362.000000	1.317577
1360.000000	1.318274
1358.000000	1.318360
1356.000000	1.318128
1354.000000	1.318063
1352.000000	1.318055
1350.000000	1.318003
1348.000000	1.317929
1346.000000	1.317966
1344.000000	1.317798
1342.000000	1.317384
1340.000000	1.317170
1338.000000	1.317594
1336.000000	1.317898
1334.000000	1.317914
1332.000000	1.317700
1330.000000	1.317641
1328.000000	1.317642
1326.000000	1.317617
1324.000000	1.317456
1322.000000	1.317285
1320.000000	1.317059
1318.000000	1.317053
1316.000000	1.317080
1314.000000	1.317067
1312.000000	1.317022
1310.000000	1.317010
1308.000000	1.316902
1306.000000	1.316828
1304.000000	1.316740
1302.000000	1.316788
1300.000000	1.316714
1298.000000	1.316708
1296.000000	1.316612
1294.000000	1.316553
1292.000000	1.316523
1290.000000	1.316466
1288.000000	1.316357
1286.000000	1.316427
1284.000000	1.316392
1282.000000	1.316261
1280.000000	1.316259
1278.000000	1.316414
1276.000000	1.316450
1274.000000	1.316475
1272.000000	1.316485
1270.000000	1.316713
1268.000000	1.317215
1266.000000	1.318404
1264.000000	1.320589
1262.000000	1.323373
1260.000000	1.325635
1258.000000	1.326510
1256.000000	1.325471
1254.000000	1.323361
1252.000000	1.321457
1250.000000	1.320484
1248.000000	1.319969
1246.000000	1.319681
1244.000000	1.319599
1242.000000	1.319693
1240.000000	1.319971
1238.000000	1.320367
1236.000000	1.320710
1234.000000	1.321127
1232.000000	1.321339
1230.000000	1.321488
1228.000000	1.321581
1226.000000	1.321747
1224.000000	1.322027
1222.000000	1.322257
1220.000000	1.322434
1218.000000	1.322855
1216.000000	1.323119
1214.000000	1.323301
1212.000000	1.323598
1210.000000	1.324052
1208.000000	1.324402
1206.000000	1.324765
1204.000000	1.325018
1202.000000	1.325332
1200.000000	1.325567
1198.000000	1.325699
1196.000000	1.325891
1194.000000	1.326235
1192.000000	1.326464
1190.000000	1.326894
1188.000000	1.327228
1186.000000	1.327372
1184.000000	1.327229
1182.000000	1.327561
1180.000000	1.328879
1178.000000	1.329854
1176.000000	1.329823
1174.000000	1.329933
1172.000000	1.330209
1170.000000	1.330467
1168.000000	1.330750
1166.000000	1.331310
1164.000000	1.331718
1162.000000	1.331933
1160.000000	1.332095
1158.000000	1.332654
1156.000000	1.333303
1154.000000	1.333780
1152.000000	1.333902
1150.000000	1.334131
1148.000000	1.334404
1146.000000	1.334857
1144.000000	1.335305
1142.000000	1.335822
1140.000000	1.336214
1138.000000	1.336398
1136.000000	1.336513
1134.000000	1.336666
1132.000000	1.336811
1130.000000	1.337167
1128.000000	1.337343
1126.000000	1.337610
1124.000000	1.337840
1122.000000	1.338135
1120.000000	1.338508
1118.000000	1.338937
1116.000000	1.339120
1114.000000	1.339306
1112.000000	1.339663
1110.000000	1.340319
1108.000000	1.340957
1106.000000	1.341542
1104.000000	1.342135
1102.000000	1.342689
1100.000000	1.343051
1098.000000	1.343598
1096.000000	1.344080
1094.000000	1.344397
1092.000000	1.344490
1090.000000	1.344253
1088.000000	1.344039
1086.000000	1.344220
1084.000000	1.343955
1082.000000	1.343373
1080.000000	1.343331
1078.000000	1.343460
1076.000000	1.343178
1074.000000	1.343163
1072.000000	1.342913
1070.000000	1.342639
1068.000000	1.342000
1066.000000	1.341379
1064.000000	1.340700
1062.000000	1.340197
1060.000000	1.339944
1058.000000	1.339239
1056.000000	1.337973
1054.000000	1.336818
1052.000000	1.336480
1050.000000	1.337930
1048.000000	1.339448
1046.000000	1.339707
1044.000000	1.338678
1042.000000	1.337251
1040.000000	1.336404
1038.000000	1.336077
1036.000000	1.335559
1034.000000	1.335058
1032.000000	1.334555
1030.000000	1.334113
1028.000000	1.333431
1026.000000	1.333393
1024.000000	1.332967
1022.000000	1.332572
1020.000000	1.331803
1018.000000	1.331521
1016.000000	1.331074
1014.000000	1.330134
1012.000000	1.328783
1010.000000	1.327392
1008.000000	1.325572
1006.000000	1.323207
1004.000000	1.319945
1002.000000	1.317005
1000.000000	1.316327
