PE IR       SUBTECH     SPECTRUM    ASCII       PEDS        4.00        
   -1
TE110A_070_130K_2MIN.ASC
20/05/14
15:03:59.00
20/05/14
15:03:59.00
Administrator
TE110A.Thursday, May 14 2020, 001.
1000.000000
#HDR
-1
-1
#GR
cm-1
A
1.0
0.0
6000.000000
-2.000000
2501
8
1.357116
1.295107
#DATA
6000.000000	1.310105
5998.000000	1.310439
5996.000000	1.309956
5994.000000	1.309712
5992.000000	1.309452
5990.000000	1.309091
5988.000000	1.309116
5986.000000	1.309438
5984.000000	1.309575
5982.000000	1.309581
5980.000000	1.309482
5978.000000	1.309647
5976.000000	1.309550
5974.000000	1.309183
5972.000000	1.308514
5970.000000	1.308018
5968.000000	1.308116
5966.000000	1.308569
5964.000000	1.309048
5962.000000	1.308906
5960.000000	1.308807
5958.000000	1.309121
5956.000000	1.309381
5954.000000	1.309323
5952.000000	1.308861
5950.000000	1.308659
5948.000000	1.308822
5946.000000	1.309012
5944.000000	1.308799
5942.000000	1.308334
5940.000000	1.308335
5938.000000	1.308462
5936.000000	1.308576
5934.000000	1.308289
5932.000000	1.308186
5930.000000	1.308624
5928.000000	1.309020
5926.000000	1.309153
5924.000000	1.309138
5922.000000	1.308915
5920.000000	1.308631
5918.000000	1.308615
5916.000000	1.308725
5914.000000	1.308727
5912.000000	1.308558
5910.000000	1.308455
5908.000000	1.308464
5906.000000	1.308198
5904.000000	1.308057
5902.000000	1.308411
5900.000000	1.309190
5898.000000	1.309516
5896.000000	1.308890
5894.000000	1.308039
5892.000000	1.307818
5890.000000	1.308007
5888.000000	1.308175
5886.000000	1.308258
5884.000000	1.308589
5882.000000	1.308724
5880.000000	1.308626
5878.000000	1.308590
5876.000000	1.308495
5874.000000	1.308252
5872.000000	1.307961
5870.000000	1.307853
5868.000000	1.307793
5866.000000	1.307512
5864.000000	1.307616
5862.000000	1.307839
5860.000000	1.308097
5858.000000	1.307994
5856.000000	1.308085
5854.000000	1.308410
5852.000000	1.308316
5850.000000	1.308226
5848.000000	1.308039
5846.000000	1.307993
5844.000000	1.308016
5842.000000	1.307744
5840.000000	1.307669
5838.000000	1.308029
5836.000000	1.308341
5834.000000	1.308403
5832.000000	1.308076
5830.000000	1.307821
5828.000000	1.307882
5826.000000	1.307931
5824.000000	1.307928
5822.000000	1.307941
5820.000000	1.308138
5818.000000	1.308241
5816.000000	1.308054
5814.000000	1.307936
5812.000000	1.307943
5810.000000	1.308077
5808.000000	1.308380
5806.000000	1.308361
5804.000000	1.308347
5802.000000	1.308340
5800.000000	1.308411
5798.000000	1.308409
5796.000000	1.308121
5794.000000	1.308016
5792.000000	1.308139
5790.000000	1.308203
5788.000000	1.308291
5786.000000	1.308348
5784.000000	1.308306
5782.000000	1.307995
5780.000000	1.307680
5778.000000	1.307931
5776.000000	1.308325
5774.000000	1.308466
5772.000000	1.308473
5770.000000	1.308497
5768.000000	1.308522
5766.000000	1.308464
5764.000000	1.308239
5762.000000	1.308473
5760.000000	1.308833
5758.000000	1.309211
5756.000000	1.309036
5754.000000	1.308538
5752.000000	1.308371
5750.000000	1.308466
5748.000000	1.308700
5746.000000	1.308376
5744.000000	1.308030
5742.000000	1.307885
5740.000000	1.308018
5738.000000	1.308067
5736.000000	1.307869
5734.000000	1.307741
5732.000000	1.307840
5730.000000	1.308073
5728.000000	1.308287
5726.000000	1.308413
5724.000000	1.308480
5722.000000	1.308384
5720.000000	1.308097
5718.000000	1.307896
5716.000000	1.307800
5714.000000	1.307934
5712.000000	1.308138
5710.000000	1.308187
5708.000000	1.308020
5706.000000	1.307867
5704.000000	1.308076
5702.000000	1.308174
5700.000000	1.307968
5698.000000	1.307638
5696.000000	1.307606
5694.000000	1.307771
5692.000000	1.307628
5690.000000	1.307619
5688.000000	1.307868
5686.000000	1.308131
5684.000000	1.308185
5682.000000	1.308063
5680.000000	1.308212
5678.000000	1.308249
5676.000000	1.307962
5674.000000	1.307650
5672.000000	1.307626
5670.000000	1.307837
5668.000000	1.308128
5666.000000	1.308053
5664.000000	1.307944
5662.000000	1.307917
5660.000000	1.308040
5658.000000	1.308173
5656.000000	1.308269
5654.000000	1.308370
5652.000000	1.308419
5650.000000	1.308372
5648.000000	1.308224
5646.000000	1.307899
5644.000000	1.307656
5642.000000	1.307562
5640.000000	1.307736
5638.000000	1.307729
5636.000000	1.307635
5634.000000	1.307681
5632.000000	1.308095
5630.000000	1.308570
5628.000000	1.308598
5626.000000	1.308137
5624.000000	1.307594
5622.000000	1.307429
5620.000000	1.307331
5618.000000	1.307278
5616.000000	1.307566
5614.000000	1.308073
5612.000000	1.308443
5610.000000	1.308307
5608.000000	1.308129
5606.000000	1.308124
5604.000000	1.308168
5602.000000	1.308043
5600.000000	1.307800
5598.000000	1.307702
5596.000000	1.307866
5594.000000	1.308082
5592.000000	1.308261
5590.000000	1.308179
5588.000000	1.308004
5586.000000	1.307875
5584.000000	1.307960
5582.000000	1.307910
5580.000000	1.307529
5578.000000	1.307320
5576.000000	1.307367
5574.000000	1.307562
5572.000000	1.307555
5570.000000	1.307504
5568.000000	1.307563
5566.000000	1.307672
5564.000000	1.307796
5562.000000	1.307911
5560.000000	1.307920
5558.000000	1.307800
5556.000000	1.307729
5554.000000	1.307542
5552.000000	1.307505
5550.000000	1.307539
5548.000000	1.307678
5546.000000	1.307817
5544.000000	1.307865
5542.000000	1.307854
5540.000000	1.307605
5538.000000	1.307488
5536.000000	1.307539
5534.000000	1.307547
5532.000000	1.307485
5530.000000	1.307570
5528.000000	1.307862
5526.000000	1.307898
5524.000000	1.307671
5522.000000	1.307563
5520.000000	1.307544
5518.000000	1.307530
5516.000000	1.307558
5514.000000	1.307632
5512.000000	1.307672
5510.000000	1.307290
5508.000000	1.307089
5506.000000	1.307079
5504.000000	1.307292
5502.000000	1.307327
5500.000000	1.307248
5498.000000	1.307332
5496.000000	1.307475
5494.000000	1.307609
5492.000000	1.307581
5490.000000	1.307396
5488.000000	1.307316
5486.000000	1.307422
5484.000000	1.307603
5482.000000	1.307527
5480.000000	1.307117
5478.000000	1.306692
5476.000000	1.306688
5474.000000	1.307113
5472.000000	1.307459
5470.000000	1.307371
5468.000000	1.307300
5466.000000	1.307395
5464.000000	1.307486
5462.000000	1.307371
5460.000000	1.307454
5458.000000	1.307740
5456.000000	1.307785
5454.000000	1.307462
5452.000000	1.307213
5450.000000	1.307075
5448.000000	1.307180
5446.000000	1.307368
5444.000000	1.307460
5442.000000	1.307748
5440.000000	1.307929
5438.000000	1.307644
5436.000000	1.307130
5434.000000	1.306869
5432.000000	1.306839
5430.000000	1.306885
5428.000000	1.307258
5426.000000	1.307912
5424.000000	1.307952
5422.000000	1.307617
5420.000000	1.307353
5418.000000	1.306934
5416.000000	1.306517
5414.000000	1.306581
5412.000000	1.307112
5410.000000	1.307491
5408.000000	1.307516
5406.000000	1.307381
5404.000000	1.307327
5402.000000	1.307437
5400.000000	1.307327
5398.000000	1.306986
5396.000000	1.306833
5394.000000	1.307266
5392.000000	1.307678
5390.000000	1.307491
5388.000000	1.307126
5386.000000	1.307098
5384.000000	1.307266
5382.000000	1.307047
5380.000000	1.306587
5378.000000	1.306643
5376.000000	1.307333
5374.000000	1.307978
5372.000000	1.308001
5370.000000	1.307632
5368.000000	1.307183
5366.000000	1.306974
5364.000000	1.306947
5362.000000	1.307245
5360.000000	1.307592
5358.000000	1.307450
5356.000000	1.306998
5354.000000	1.306841
5352.000000	1.306978
5350.000000	1.307042
5348.000000	1.306648
5346.000000	1.306602
5344.000000	1.307009
5342.000000	1.307329
5340.000000	1.307277
5338.000000	1.307293
5336.000000	1.307659
5334.000000	1.307911
5332.000000	1.307717
5330.000000	1.307385
5328.000000	1.307257
5326.000000	1.307350
5324.000000	1.307620
5322.000000	1.307655
5320.000000	1.307460
5318.000000	1.307343
5316.000000	1.307567
5314.000000	1.307741
5312.000000	1.307501
5310.000000	1.307154
5308.000000	1.307235
5306.000000	1.307532
5304.000000	1.307556
5302.000000	1.307408
5300.000000	1.307488
5298.000000	1.307557
5296.000000	1.307415
5294.000000	1.307186
5292.000000	1.307105
5290.000000	1.307112
5288.000000	1.307146
5286.000000	1.307163
5284.000000	1.307209
5282.000000	1.307351
5280.000000	1.307622
5278.000000	1.307837
5276.000000	1.307865
5274.000000	1.307774
5272.000000	1.307647
5270.000000	1.307542
5268.000000	1.307285
5266.000000	1.306928
5264.000000	1.306908
5262.000000	1.307335
5260.000000	1.307780
5258.000000	1.307627
5256.000000	1.307331
5254.000000	1.307450
5252.000000	1.307730
5250.000000	1.307611
5248.000000	1.307240
5246.000000	1.307129
5244.000000	1.307327
5242.000000	1.307577
5240.000000	1.307714
5238.000000	1.307750
5236.000000	1.307623
5234.000000	1.307504
5232.000000	1.307447
5230.000000	1.307351
5228.000000	1.307180
5226.000000	1.307234
5224.000000	1.307620
5222.000000	1.307776
5220.000000	1.307674
5218.000000	1.307647
5216.000000	1.307745
5214.000000	1.307694
5212.000000	1.307389
5210.000000	1.307149
5208.000000	1.307186
5206.000000	1.307522
5204.000000	1.307831
5202.000000	1.307773
5200.000000	1.307564
5198.000000	1.307446
5196.000000	1.307531
5194.000000	1.307559
5192.000000	1.307551
5190.000000	1.307663
5188.000000	1.307819
5186.000000	1.307876
5184.000000	1.307878
5182.000000	1.307931
5180.000000	1.307877
5178.000000	1.307672
5176.000000	1.307635
5174.000000	1.307708
5172.000000	1.307679
5170.000000	1.307704
5168.000000	1.307789
5166.000000	1.307854
5164.000000	1.307886
5162.000000	1.308038
5160.000000	1.308146
5158.000000	1.308041
5156.000000	1.308088
5154.000000	1.308182
5152.000000	1.308175
5150.000000	1.307983
5148.000000	1.307797
5146.000000	1.307716
5144.000000	1.307704
5142.000000	1.307898
5140.000000	1.308195
5138.000000	1.308346
5136.000000	1.308177
5134.000000	1.308021
5132.000000	1.308141
5130.000000	1.308191
5128.000000	1.308028
5126.000000	1.307848
5124.000000	1.307836
5122.000000	1.307938
5120.000000	1.308045
5118.000000	1.308221
5116.000000	1.308385
5114.000000	1.308351
5112.000000	1.308182
5110.000000	1.308156
5108.000000	1.308370
5106.000000	1.308477
5104.000000	1.308404
5102.000000	1.308325
5100.000000	1.308280
5098.000000	1.308144
5096.000000	1.308015
5094.000000	1.308031
5092.000000	1.308246
5090.000000	1.308306
5088.000000	1.308059
5086.000000	1.307802
5084.000000	1.307805
5082.000000	1.308051
5080.000000	1.308187
5078.000000	1.308202
5076.000000	1.308234
5074.000000	1.308410
5072.000000	1.308621
5070.000000	1.308702
5068.000000	1.308775
5066.000000	1.308711
5064.000000	1.308509
5062.000000	1.308410
5060.000000	1.308526
5058.000000	1.308652
5056.000000	1.308646
5054.000000	1.308749
5052.000000	1.308834
5050.000000	1.308835
5048.000000	1.308791
5046.000000	1.308844
5044.000000	1.308927
5042.000000	1.308916
5040.000000	1.308751
5038.000000	1.308566
5036.000000	1.308732
5034.000000	1.309030
5032.000000	1.309211
5030.000000	1.309066
5028.000000	1.308841
5026.000000	1.308650
5024.000000	1.308669
5022.000000	1.308736
5020.000000	1.308641
5018.000000	1.308485
5016.000000	1.308477
5014.000000	1.308644
5012.000000	1.308829
5010.000000	1.308877
5008.000000	1.308925
5006.000000	1.309287
5004.000000	1.309435
5002.000000	1.309277
5000.000000	1.309173
4998.000000	1.309337
4996.000000	1.309289
4994.000000	1.309241
4992.000000	1.309300
4990.000000	1.309187
4988.000000	1.309057
4986.000000	1.309146
4984.000000	1.309215
4982.000000	1.309195
4980.000000	1.309204
4978.000000	1.309322
4976.000000	1.309471
4974.000000	1.309566
4972.000000	1.309529
4970.000000	1.309471
4968.000000	1.309467
4966.000000	1.309316
4964.000000	1.309156
4962.000000	1.309119
4960.000000	1.309194
4958.000000	1.309227
4956.000000	1.309297
4954.000000	1.309350
4952.000000	1.309438
4950.000000	1.309652
4948.000000	1.309834
4946.000000	1.309701
4944.000000	1.309519
4942.000000	1.309497
4940.000000	1.309469
4938.000000	1.309339
4936.000000	1.309369
4934.000000	1.309452
4932.000000	1.309508
4930.000000	1.309581
4928.000000	1.309600
4926.000000	1.309510
4924.000000	1.309432
4922.000000	1.309438
4920.000000	1.309369
4918.000000	1.309261
4916.000000	1.309239
4914.000000	1.309326
4912.000000	1.309436
4910.000000	1.309548
4908.000000	1.309719
4906.000000	1.309858
4904.000000	1.309764
4902.000000	1.309615
4900.000000	1.309683
4898.000000	1.309800
4896.000000	1.309709
4894.000000	1.309648
4892.000000	1.309779
4890.000000	1.309923
4888.000000	1.309841
4886.000000	1.309724
4884.000000	1.309745
4882.000000	1.309836
4880.000000	1.309905
4878.000000	1.309954
4876.000000	1.309874
4874.000000	1.309623
4872.000000	1.309439
4870.000000	1.309376
4868.000000	1.309405
4866.000000	1.309600
4864.000000	1.309943
4862.000000	1.310112
4860.000000	1.310085
4858.000000	1.309985
4856.000000	1.309987
4854.000000	1.310032
4852.000000	1.310046
4850.000000	1.310103
4848.000000	1.310198
4846.000000	1.310152
4844.000000	1.309949
4842.000000	1.309932
4840.000000	1.310182
4838.000000	1.310380
4836.000000	1.310315
4834.000000	1.310068
4832.000000	1.309907
4830.000000	1.309939
4828.000000	1.310040
4826.000000	1.310005
4824.000000	1.309868
4822.000000	1.309816
4820.000000	1.309974
4818.000000	1.310190
4816.000000	1.310260
4814.000000	1.310178
4812.000000	1.310101
4810.000000	1.309986
4808.000000	1.309944
4806.000000	1.310100
4804.000000	1.310165
4802.000000	1.310050
4800.000000	1.310031
4798.000000	1.310219
4796.000000	1.310415
4794.000000	1.310521
4792.000000	1.310497
4790.000000	1.310450
4788.000000	1.310455
4786.000000	1.310436
4784.000000	1.310369
4782.000000	1.310343
4780.000000	1.310299
4778.000000	1.310260
4776.000000	1.310349
4774.000000	1.310552
4772.000000	1.310619
4770.000000	1.310481
4768.000000	1.310340
4766.000000	1.310316
4764.000000	1.310326
4762.000000	1.310301
4760.000000	1.310351
4758.000000	1.310399
4756.000000	1.310433
4754.000000	1.310509
4752.000000	1.310610
4750.000000	1.310598
4748.000000	1.310506
4746.000000	1.310421
4744.000000	1.310406
4742.000000	1.310536
4740.000000	1.310519
4738.000000	1.310395
4736.000000	1.310449
4734.000000	1.310670
4732.000000	1.310691
4730.000000	1.310527
4728.000000	1.310440
4726.000000	1.310537
4724.000000	1.310639
4722.000000	1.310553
4720.000000	1.310396
4718.000000	1.310363
4716.000000	1.310423
4714.000000	1.310514
4712.000000	1.310555
4710.000000	1.310550
4708.000000	1.310628
4706.000000	1.310718
4704.000000	1.310692
4702.000000	1.310605
4700.000000	1.310643
4698.000000	1.310763
4696.000000	1.310846
4694.000000	1.310815
4692.000000	1.310770
4690.000000	1.310685
4688.000000	1.310556
4686.000000	1.310606
4684.000000	1.310794
4682.000000	1.310788
4680.000000	1.310662
4678.000000	1.310617
4676.000000	1.310578
4674.000000	1.310637
4672.000000	1.310874
4670.000000	1.310974
4668.000000	1.310901
4666.000000	1.310980
4664.000000	1.311035
4662.000000	1.310870
4660.000000	1.310705
4658.000000	1.310758
4656.000000	1.310880
4654.000000	1.310941
4652.000000	1.310885
4650.000000	1.310893
4648.000000	1.310919
4646.000000	1.310883
4644.000000	1.310825
4642.000000	1.310911
4640.000000	1.310981
4638.000000	1.311000
4636.000000	1.310964
4634.000000	1.310912
4632.000000	1.310916
4630.000000	1.311025
4628.000000	1.311118
4626.000000	1.311083
4624.000000	1.310997
4622.000000	1.311021
4620.000000	1.311082
4618.000000	1.311065
4616.000000	1.310976
4614.000000	1.310900
4612.000000	1.310942
4610.000000	1.311136
4608.000000	1.311208
4606.000000	1.311047
4604.000000	1.310984
4602.000000	1.311118
4600.000000	1.311182
4598.000000	1.311023
4596.000000	1.310810
4594.000000	1.310822
4592.000000	1.310977
4590.000000	1.311087
4588.000000	1.311064
4586.000000	1.311075
4584.000000	1.311201
4582.000000	1.311372
4580.000000	1.311429
4578.000000	1.311401
4576.000000	1.311349
4574.000000	1.311306
4572.000000	1.311301
4570.000000	1.311407
4568.000000	1.311527
4566.000000	1.311536
4564.000000	1.311404
4562.000000	1.311233
4560.000000	1.311121
4558.000000	1.311153
4556.000000	1.311230
4554.000000	1.311285
4552.000000	1.311373
4550.000000	1.311451
4548.000000	1.311346
4546.000000	1.311262
4544.000000	1.311363
4542.000000	1.311458
4540.000000	1.311421
4538.000000	1.311427
4536.000000	1.311384
4534.000000	1.311235
4532.000000	1.311258
4530.000000	1.311418
4528.000000	1.311464
4526.000000	1.311402
4524.000000	1.311314
4522.000000	1.311226
4520.000000	1.311343
4518.000000	1.311557
4516.000000	1.311615
4514.000000	1.311601
4512.000000	1.311528
4510.000000	1.311379
4508.000000	1.311365
4506.000000	1.311577
4504.000000	1.311764
4502.000000	1.311822
4500.000000	1.311737
4498.000000	1.311540
4496.000000	1.311365
4494.000000	1.311349
4492.000000	1.311486
4490.000000	1.311576
4488.000000	1.311599
4486.000000	1.311722
4484.000000	1.311869
4482.000000	1.311784
4480.000000	1.311685
4478.000000	1.311762
4476.000000	1.311885
4474.000000	1.311952
4472.000000	1.311959
4470.000000	1.311902
4468.000000	1.311875
4466.000000	1.311932
4464.000000	1.312000
4462.000000	1.312020
4460.000000	1.312006
4458.000000	1.312030
4456.000000	1.311945
4454.000000	1.311707
4452.000000	1.311542
4450.000000	1.311594
4448.000000	1.311783
4446.000000	1.311964
4444.000000	1.312011
4442.000000	1.311935
4440.000000	1.311851
4438.000000	1.311835
4436.000000	1.311884
4434.000000	1.311913
4432.000000	1.311884
4430.000000	1.311858
4428.000000	1.311842
4426.000000	1.311836
4424.000000	1.311810
4422.000000	1.311799
4420.000000	1.311820
4418.000000	1.311862
4416.000000	1.311874
4414.000000	1.311892
4412.000000	1.311910
4410.000000	1.311897
4408.000000	1.311897
4406.000000	1.311934
4404.000000	1.311921
4402.000000	1.311876
4400.000000	1.311793
4398.000000	1.311722
4396.000000	1.311776
4394.000000	1.311982
4392.000000	1.312086
4390.000000	1.312006
4388.000000	1.311898
4386.000000	1.311913
4384.000000	1.311911
4382.000000	1.311845
4380.000000	1.311857
4378.000000	1.312021
4376.000000	1.312158
4374.000000	1.312207
4372.000000	1.312211
4370.000000	1.312215
4368.000000	1.312204
4366.000000	1.312097
4364.000000	1.312034
4362.000000	1.312138
4360.000000	1.312148
4358.000000	1.312024
4356.000000	1.312050
4354.000000	1.312194
4352.000000	1.312207
4350.000000	1.312168
4348.000000	1.312216
4346.000000	1.312223
4344.000000	1.312184
4342.000000	1.312183
4340.000000	1.312062
4338.000000	1.311886
4336.000000	1.311785
4334.000000	1.311813
4332.000000	1.311972
4330.000000	1.312110
4328.000000	1.312172
4326.000000	1.312187
4324.000000	1.312125
4322.000000	1.312085
4320.000000	1.312082
4318.000000	1.312027
4316.000000	1.312038
4314.000000	1.312129
4312.000000	1.312137
4310.000000	1.311998
4308.000000	1.311853
4306.000000	1.311840
4304.000000	1.311935
4302.000000	1.311997
4300.000000	1.311974
4298.000000	1.311979
4296.000000	1.311957
4294.000000	1.311910
4292.000000	1.311893
4290.000000	1.311904
4288.000000	1.311912
4286.000000	1.311943
4284.000000	1.311959
4282.000000	1.312038
4280.000000	1.312170
4278.000000	1.312310
4276.000000	1.312330
4274.000000	1.312282
4272.000000	1.312257
4270.000000	1.312177
4268.000000	1.312016
4266.000000	1.312012
4264.000000	1.312109
4262.000000	1.312162
4260.000000	1.312146
4258.000000	1.312097
4256.000000	1.312090
4254.000000	1.312212
4252.000000	1.312244
4250.000000	1.312106
4248.000000	1.311950
4246.000000	1.311828
4244.000000	1.311766
4242.000000	1.311809
4240.000000	1.311862
4238.000000	1.311916
4236.000000	1.311995
4234.000000	1.312015
4232.000000	1.311995
4230.000000	1.312013
4228.000000	1.311993
4226.000000	1.311914
4224.000000	1.311886
4222.000000	1.311885
4220.000000	1.311826
4218.000000	1.311803
4216.000000	1.311889
4214.000000	1.312020
4212.000000	1.312038
4210.000000	1.311918
4208.000000	1.311825
4206.000000	1.311853
4204.000000	1.311910
4202.000000	1.311965
4200.000000	1.311962
4198.000000	1.311911
4196.000000	1.311902
4194.000000	1.311940
4192.000000	1.311957
4190.000000	1.312024
4188.000000	1.312078
4186.000000	1.312009
4184.000000	1.311935
4182.000000	1.311952
4180.000000	1.311932
4178.000000	1.311885
4176.000000	1.311831
4174.000000	1.311866
4172.000000	1.311925
4170.000000	1.311853
4168.000000	1.311718
4166.000000	1.311739
4164.000000	1.311790
4162.000000	1.311786
4160.000000	1.311771
4158.000000	1.311714
4156.000000	1.311641
4154.000000	1.311661
4152.000000	1.311649
4150.000000	1.311597
4148.000000	1.311592
4146.000000	1.311612
4144.000000	1.311527
4142.000000	1.311388
4140.000000	1.311331
4138.000000	1.311294
4136.000000	1.311209
4134.000000	1.311205
4132.000000	1.311258
4130.000000	1.311305
4128.000000	1.311421
4126.000000	1.311499
4124.000000	1.311433
4122.000000	1.311431
4120.000000	1.311452
4118.000000	1.311359
4116.000000	1.311222
4114.000000	1.311195
4112.000000	1.311329
4110.000000	1.311370
4108.000000	1.311166
4106.000000	1.311078
4104.000000	1.311228
4102.000000	1.311311
4100.000000	1.311189
4098.000000	1.311070
4096.000000	1.311108
4094.000000	1.311206
4092.000000	1.311209
4090.000000	1.311146
4088.000000	1.311126
4086.000000	1.311219
4084.000000	1.311292
4082.000000	1.311232
4080.000000	1.311108
4078.000000	1.311117
4076.000000	1.311168
4074.000000	1.311124
4072.000000	1.311102
4070.000000	1.311050
4068.000000	1.310894
4066.000000	1.310874
4064.000000	1.311005
4062.000000	1.311074
4060.000000	1.310977
4058.000000	1.310861
4056.000000	1.310789
4054.000000	1.310813
4052.000000	1.310890
4050.000000	1.310876
4048.000000	1.310790
4046.000000	1.310722
4044.000000	1.310690
4042.000000	1.310672
4040.000000	1.310622
4038.000000	1.310564
4036.000000	1.310494
4034.000000	1.310499
4032.000000	1.310565
4030.000000	1.310513
4028.000000	1.310366
4026.000000	1.310388
4024.000000	1.310547
4022.000000	1.310621
4020.000000	1.310522
4018.000000	1.310402
4016.000000	1.310401
4014.000000	1.310431
4012.000000	1.310362
4010.000000	1.310305
4008.000000	1.310337
4006.000000	1.310377
4004.000000	1.310544
4002.000000	1.310721
4000.000000	1.310507
3998.000000	1.310182
3996.000000	1.310090
3994.000000	1.310182
3992.000000	1.310266
3990.000000	1.310271
3988.000000	1.310319
3986.000000	1.310323
3984.000000	1.310246
3982.000000	1.310272
3980.000000	1.310258
3978.000000	1.310062
3976.000000	1.309889
3974.000000	1.309953
3972.000000	1.310070
3970.000000	1.310055
3968.000000	1.310000
3966.000000	1.309929
3964.000000	1.309705
3962.000000	1.309628
3960.000000	1.309766
3958.000000	1.309771
3956.000000	1.309688
3954.000000	1.309579
3952.000000	1.309337
3950.000000	1.309267
3948.000000	1.309463
3946.000000	1.309402
3944.000000	1.309096
3942.000000	1.309313
3940.000000	1.309646
3938.000000	1.309476
3936.000000	1.308980
3934.000000	1.308448
3932.000000	1.308539
3930.000000	1.309185
3928.000000	1.309246
3926.000000	1.308870
3924.000000	1.308868
3922.000000	1.308666
3920.000000	1.307977
3918.000000	1.307990
3916.000000	1.308988
3914.000000	1.309580
3912.000000	1.309286
3910.000000	1.308832
3908.000000	1.307603
3906.000000	1.305533
3904.000000	1.304818
3902.000000	1.305966
3900.000000	1.307710
3898.000000	1.309307
3896.000000	1.309200
3894.000000	1.307180
3892.000000	1.306442
3890.000000	1.307533
3888.000000	1.306687
3886.000000	1.305981
3884.000000	1.307608
3882.000000	1.307663
3880.000000	1.307504
3878.000000	1.308370
3876.000000	1.307502
3874.000000	1.305871
3872.000000	1.304254
3870.000000	1.304720
3868.000000	1.306954
3866.000000	1.306701
3864.000000	1.306501
3862.000000	1.308020
3860.000000	1.308173
3858.000000	1.304343
3856.000000	1.296997
3854.000000	1.296550
3852.000000	1.305970
3850.000000	1.311597
3848.000000	1.309775
3846.000000	1.307082
3844.000000	1.305714
3842.000000	1.304270
3840.000000	1.301735
3838.000000	1.302205
3836.000000	1.306300
3834.000000	1.307882
3832.000000	1.307330
3830.000000	1.307593
3828.000000	1.307461
3826.000000	1.306569
3824.000000	1.304199
3822.000000	1.302817
3820.000000	1.304465
3818.000000	1.303875
3816.000000	1.304213
3814.000000	1.308593
3812.000000	1.309179
3810.000000	1.305439
3808.000000	1.303364
3806.000000	1.304743
3804.000000	1.303820
3802.000000	1.302399
3800.000000	1.306111
3798.000000	1.308204
3796.000000	1.307533
3794.000000	1.307924
3792.000000	1.307891
3790.000000	1.307468
3788.000000	1.307194
3786.000000	1.306979
3784.000000	1.306914
3782.000000	1.306396
3780.000000	1.306103
3778.000000	1.307053
3776.000000	1.307617
3774.000000	1.306738
3772.000000	1.305260
3770.000000	1.305102
3768.000000	1.306054
3766.000000	1.306457
3764.000000	1.306617
3762.000000	1.305719
3760.000000	1.304734
3758.000000	1.305336
3756.000000	1.304043
3754.000000	1.299130
3752.000000	1.296735
3750.000000	1.300329
3748.000000	1.301854
3746.000000	1.298119
3744.000000	1.301014
3742.000000	1.307776
3740.000000	1.305800
3738.000000	1.300912
3736.000000	1.300576
3734.000000	1.302677
3732.000000	1.304804
3730.000000	1.306178
3728.000000	1.305224
3726.000000	1.304340
3724.000000	1.304714
3722.000000	1.304981
3720.000000	1.305391
3718.000000	1.305508
3716.000000	1.303933
3714.000000	1.300971
3712.000000	1.300945
3710.000000	1.304199
3708.000000	1.306117
3706.000000	1.305626
3704.000000	1.304184
3702.000000	1.304024
3700.000000	1.305313
3698.000000	1.305585
3696.000000	1.304803
3694.000000	1.303255
3692.000000	1.300305
3690.000000	1.298557
3688.000000	1.301996
3686.000000	1.306216
3684.000000	1.305717
3682.000000	1.303747
3680.000000	1.301675
3678.000000	1.297989
3676.000000	1.297459
3674.000000	1.300783
3672.000000	1.300151
3670.000000	1.300383
3668.000000	1.304381
3666.000000	1.305132
3664.000000	1.303769
3662.000000	1.303095
3660.000000	1.301984
3658.000000	1.300303
3656.000000	1.300833
3654.000000	1.301164
3652.000000	1.297388
3650.000000	1.295752
3648.000000	1.299921
3646.000000	1.303523
3644.000000	1.303365
3642.000000	1.302308
3640.000000	1.301995
3638.000000	1.301681
3636.000000	1.301123
3634.000000	1.300265
3632.000000	1.297354
3630.000000	1.295107
3628.000000	1.299054
3626.000000	1.302963
3624.000000	1.301615
3622.000000	1.298802
3620.000000	1.297773
3618.000000	1.299327
3616.000000	1.300012
3614.000000	1.298932
3612.000000	1.298338
3610.000000	1.298351
3608.000000	1.299546
3606.000000	1.300867
3604.000000	1.300503
3602.000000	1.299622
3600.000000	1.299437
3598.000000	1.299397
3596.000000	1.299209
3594.000000	1.299513
3592.000000	1.299194
3590.000000	1.297513
3588.000000	1.297277
3586.000000	1.299164
3584.000000	1.300096
3582.000000	1.299642
3580.000000	1.299377
3578.000000	1.299485
3576.000000	1.299533
3574.000000	1.299479
3572.000000	1.298914
3570.000000	1.297511
3568.000000	1.296990
3566.000000	1.298558
3564.000000	1.299805
3562.000000	1.299587
3560.000000	1.299407
3558.000000	1.299600
3556.000000	1.299459
3554.000000	1.299148
3552.000000	1.299258
3550.000000	1.299352
3548.000000	1.299031
3546.000000	1.299147
3544.000000	1.299757
3542.000000	1.300151
3540.000000	1.300170
3538.000000	1.300078
3536.000000	1.300196
3534.000000	1.300388
3532.000000	1.300280
3530.000000	1.300103
3528.000000	1.300143
3526.000000	1.300270
3524.000000	1.300477
3522.000000	1.300855
3520.000000	1.301140
3518.000000	1.301248
3516.000000	1.301354
3514.000000	1.301484
3512.000000	1.301570
3510.000000	1.301773
3508.000000	1.302112
3506.000000	1.302085
3504.000000	1.302010
3502.000000	1.302471
3500.000000	1.302927
3498.000000	1.303105
3496.000000	1.303349
3494.000000	1.303618
3492.000000	1.303777
3490.000000	1.303948
3488.000000	1.304199
3486.000000	1.304520
3484.000000	1.304734
3482.000000	1.305009
3480.000000	1.305518
3478.000000	1.305998
3476.000000	1.306303
3474.000000	1.306632
3472.000000	1.306945
3470.000000	1.307157
3468.000000	1.307498
3466.000000	1.307989
3464.000000	1.308410
3462.000000	1.308804
3460.000000	1.309236
3458.000000	1.309682
3456.000000	1.310136
3454.000000	1.310538
3452.000000	1.310952
3450.000000	1.311237
3448.000000	1.311438
3446.000000	1.311980
3444.000000	1.312563
3442.000000	1.312967
3440.000000	1.313416
3438.000000	1.313847
3436.000000	1.314251
3434.000000	1.314632
3432.000000	1.315063
3430.000000	1.315636
3428.000000	1.316185
3426.000000	1.316460
3424.000000	1.316595
3422.000000	1.316887
3420.000000	1.317365
3418.000000	1.317754
3416.000000	1.317929
3414.000000	1.318151
3412.000000	1.318455
3410.000000	1.318715
3408.000000	1.318951
3406.000000	1.319154
3404.000000	1.319326
3402.000000	1.319472
3400.000000	1.319678
3398.000000	1.320031
3396.000000	1.320301
3394.000000	1.320338
3392.000000	1.320381
3390.000000	1.320619
3388.000000	1.320883
3386.000000	1.321071
3384.000000	1.321253
3382.000000	1.321411
3380.000000	1.321535
3378.000000	1.321589
3376.000000	1.321686
3374.000000	1.321858
3372.000000	1.321921
3370.000000	1.321903
3368.000000	1.321931
3366.000000	1.322026
3364.000000	1.322140
3362.000000	1.322240
3360.000000	1.322362
3358.000000	1.322565
3356.000000	1.322762
3354.000000	1.322797
3352.000000	1.322791
3350.000000	1.322939
3348.000000	1.323094
3346.000000	1.323161
3344.000000	1.323217
3342.000000	1.323238
3340.000000	1.323242
3338.000000	1.323258
3336.000000	1.323367
3334.000000	1.323543
3332.000000	1.323643
3330.000000	1.323621
3328.000000	1.323585
3326.000000	1.323675
3324.000000	1.323820
3322.000000	1.323898
3320.000000	1.323938
3318.000000	1.324000
3316.000000	1.324122
3314.000000	1.324239
3312.000000	1.324308
3310.000000	1.324263
3308.000000	1.324191
3306.000000	1.324215
3304.000000	1.324392
3302.000000	1.324561
3300.000000	1.324567
3298.000000	1.324556
3296.000000	1.324552
3294.000000	1.324616
3292.000000	1.324748
3290.000000	1.324909
3288.000000	1.325024
3286.000000	1.325076
3284.000000	1.325071
3282.000000	1.325101
3280.000000	1.325144
3278.000000	1.325109
3276.000000	1.325077
3274.000000	1.325151
3272.000000	1.325257
3270.000000	1.325329
3268.000000	1.325408
3266.000000	1.325430
3264.000000	1.325494
3262.000000	1.325573
3260.000000	1.325602
3258.000000	1.325629
3256.000000	1.325741
3254.000000	1.325852
3252.000000	1.325858
3250.000000	1.325926
3248.000000	1.326041
3246.000000	1.326121
3244.000000	1.326257
3242.000000	1.326326
3240.000000	1.326247
3238.000000	1.326289
3236.000000	1.326393
3234.000000	1.326421
3232.000000	1.326556
3230.000000	1.326779
3228.000000	1.326908
3226.000000	1.326901
3224.000000	1.326926
3222.000000	1.326952
3220.000000	1.326877
3218.000000	1.326922
3216.000000	1.326937
3214.000000	1.326904
3212.000000	1.326980
3210.000000	1.327043
3208.000000	1.327114
3206.000000	1.327254
3204.000000	1.327364
3202.000000	1.327380
3200.000000	1.327410
3198.000000	1.327460
3196.000000	1.327527
3194.000000	1.327658
3192.000000	1.327673
3190.000000	1.327610
3188.000000	1.327632
3186.000000	1.327673
3184.000000	1.327716
3182.000000	1.327707
3180.000000	1.327667
3178.000000	1.327820
3176.000000	1.328005
3174.000000	1.327997
3172.000000	1.327978
3170.000000	1.328005
3168.000000	1.328090
3166.000000	1.328241
3164.000000	1.328276
3162.000000	1.328207
3160.000000	1.328246
3158.000000	1.328361
3156.000000	1.328388
3154.000000	1.328332
3152.000000	1.328369
3150.000000	1.328571
3148.000000	1.328762
3146.000000	1.328857
3144.000000	1.328835
3142.000000	1.328731
3140.000000	1.328736
3138.000000	1.328906
3136.000000	1.328989
3134.000000	1.328910
3132.000000	1.329001
3130.000000	1.329127
3128.000000	1.329267
3126.000000	1.329419
3124.000000	1.329341
3122.000000	1.329237
3120.000000	1.329178
3118.000000	1.329116
3116.000000	1.329089
3114.000000	1.329218
3112.000000	1.329414
3110.000000	1.329438
3108.000000	1.329437
3106.000000	1.329459
3104.000000	1.329463
3102.000000	1.329430
3100.000000	1.329333
3098.000000	1.329286
3096.000000	1.329293
3094.000000	1.329283
3092.000000	1.329198
3090.000000	1.329046
3088.000000	1.328999
3086.000000	1.328987
3084.000000	1.328866
3082.000000	1.328663
3080.000000	1.328530
3078.000000	1.328603
3076.000000	1.328696
3074.000000	1.328699
3072.000000	1.328662
3070.000000	1.328495
3068.000000	1.328282
3066.000000	1.328325
3064.000000	1.328524
3062.000000	1.328567
3060.000000	1.328488
3058.000000	1.328439
3056.000000	1.328486
3054.000000	1.328459
3052.000000	1.328350
3050.000000	1.328288
3048.000000	1.328222
3046.000000	1.328107
3044.000000	1.328001
3042.000000	1.328038
3040.000000	1.328082
3038.000000	1.328043
3036.000000	1.328018
3034.000000	1.327948
3032.000000	1.327911
3030.000000	1.327868
3028.000000	1.327686
3026.000000	1.327473
3024.000000	1.327359
3022.000000	1.327434
3020.000000	1.327636
3018.000000	1.327922
3016.000000	1.328354
3014.000000	1.328539
3012.000000	1.328493
3010.000000	1.328402
3008.000000	1.328265
3006.000000	1.328105
3004.000000	1.328127
3002.000000	1.328334
3000.000000	1.328034
2998.000000	1.327633
2996.000000	1.327572
2994.000000	1.327530
2992.000000	1.327508
2990.000000	1.327476
2988.000000	1.327543
2986.000000	1.327534
2984.000000	1.327363
2982.000000	1.327266
2980.000000	1.327186
2978.000000	1.327054
2976.000000	1.326939
2974.000000	1.326859
2972.000000	1.326857
2970.000000	1.326954
2968.000000	1.327225
2966.000000	1.327736
2964.000000	1.328464
2962.000000	1.329252
2960.000000	1.329789
2958.000000	1.329748
2956.000000	1.329316
2954.000000	1.328855
2952.000000	1.328440
2950.000000	1.327924
2948.000000	1.327314
2946.000000	1.326684
2944.000000	1.326209
2942.000000	1.325895
2940.000000	1.325711
2938.000000	1.325662
2936.000000	1.325765
2934.000000	1.325890
2932.000000	1.325884
2930.000000	1.325918
2928.000000	1.326246
2926.000000	1.326894
2924.000000	1.327768
2922.000000	1.328742
2920.000000	1.329538
2918.000000	1.329826
2916.000000	1.329725
2914.000000	1.329448
2912.000000	1.328947
2910.000000	1.328401
2908.000000	1.328084
2906.000000	1.327918
2904.000000	1.327729
2902.000000	1.327583
2900.000000	1.327506
2898.000000	1.327411
2896.000000	1.327338
2894.000000	1.327288
2892.000000	1.327222
2890.000000	1.327127
2888.000000	1.326926
2886.000000	1.326684
2884.000000	1.326533
2882.000000	1.326416
2880.000000	1.326268
2878.000000	1.326078
2876.000000	1.325831
2874.000000	1.325566
2872.000000	1.325338
2870.000000	1.324986
2868.000000	1.324561
2866.000000	1.324289
2864.000000	1.324378
2862.000000	1.325021
2860.000000	1.325872
2858.000000	1.326526
2856.000000	1.326884
2854.000000	1.326997
2852.000000	1.327143
2850.000000	1.327394
2848.000000	1.327636
2846.000000	1.327658
2844.000000	1.327284
2842.000000	1.326878
2840.000000	1.326642
2838.000000	1.326460
2836.000000	1.326406
2834.000000	1.326373
2832.000000	1.326244
2830.000000	1.326111
2828.000000	1.325995
2826.000000	1.325943
2824.000000	1.325963
2822.000000	1.325921
2820.000000	1.325840
2818.000000	1.325793
2816.000000	1.325744
2814.000000	1.325704
2812.000000	1.325693
2810.000000	1.325644
2808.000000	1.325608
2806.000000	1.325640
2804.000000	1.325718
2802.000000	1.325653
2800.000000	1.325485
2798.000000	1.325397
2796.000000	1.325369
2794.000000	1.325385
2792.000000	1.325409
2790.000000	1.325474
2788.000000	1.325568
2786.000000	1.325575
2784.000000	1.325568
2782.000000	1.325552
2780.000000	1.325432
2778.000000	1.325314
2776.000000	1.325293
2774.000000	1.325373
2772.000000	1.325509
2770.000000	1.325494
2768.000000	1.325373
2766.000000	1.325286
2764.000000	1.325222
2762.000000	1.325195
2760.000000	1.325276
2758.000000	1.325299
2756.000000	1.325305
2754.000000	1.325396
2752.000000	1.325437
2750.000000	1.325429
2748.000000	1.325414
2746.000000	1.325372
2744.000000	1.325381
2742.000000	1.325395
2740.000000	1.325426
2738.000000	1.325518
2736.000000	1.325574
2734.000000	1.325546
2732.000000	1.325549
2730.000000	1.325624
2728.000000	1.325702
2726.000000	1.325756
2724.000000	1.325794
2722.000000	1.325818
2720.000000	1.325914
2718.000000	1.325961
2716.000000	1.325945
2714.000000	1.325952
2712.000000	1.326048
2710.000000	1.326147
2708.000000	1.326250
2706.000000	1.326369
2704.000000	1.326476
2702.000000	1.326516
2700.000000	1.326609
2698.000000	1.326760
2696.000000	1.326916
2694.000000	1.326938
2692.000000	1.326962
2690.000000	1.327047
2688.000000	1.327172
2686.000000	1.327384
2684.000000	1.327431
2682.000000	1.327430
2680.000000	1.327550
2678.000000	1.327615
2676.000000	1.327632
2674.000000	1.327685
2672.000000	1.327783
2670.000000	1.327885
2668.000000	1.328027
2666.000000	1.328157
2664.000000	1.328187
2662.000000	1.328192
2660.000000	1.328299
2658.000000	1.328422
2656.000000	1.328509
2654.000000	1.328657
2652.000000	1.328798
2650.000000	1.328874
2648.000000	1.328929
2646.000000	1.328927
2644.000000	1.328972
2642.000000	1.328996
2640.000000	1.329011
2638.000000	1.329045
2636.000000	1.329112
2634.000000	1.329159
2632.000000	1.329158
2630.000000	1.329186
2628.000000	1.329244
2626.000000	1.329251
2624.000000	1.329216
2622.000000	1.329203
2620.000000	1.329220
2618.000000	1.329232
2616.000000	1.329266
2614.000000	1.329325
2612.000000	1.329360
2610.000000	1.329364
2608.000000	1.329368
2606.000000	1.329368
2604.000000	1.329323
2602.000000	1.329267
2600.000000	1.329337
2598.000000	1.329425
2596.000000	1.329445
2594.000000	1.329440
2592.000000	1.329533
2590.000000	1.329602
2588.000000	1.329701
2586.000000	1.329788
2584.000000	1.329816
2582.000000	1.329779
2580.000000	1.329701
2578.000000	1.329725
2576.000000	1.329828
2574.000000	1.329878
2572.000000	1.329874
2570.000000	1.329913
2568.000000	1.329895
2566.000000	1.329885
2564.000000	1.329918
2562.000000	1.329902
2560.000000	1.329908
2558.000000	1.329933
2556.000000	1.329931
2554.000000	1.329915
2552.000000	1.329953
2550.000000	1.329993
2548.000000	1.329968
2546.000000	1.329926
2544.000000	1.329947
2542.000000	1.329941
2540.000000	1.329946
2538.000000	1.329931
2536.000000	1.329959
2534.000000	1.330021
2532.000000	1.330075
2530.000000	1.330061
2528.000000	1.329982
2526.000000	1.329929
2524.000000	1.329947
2522.000000	1.329923
2520.000000	1.329906
2518.000000	1.329901
2516.000000	1.329931
2514.000000	1.329998
2512.000000	1.330082
2510.000000	1.330102
2508.000000	1.330028
2506.000000	1.329923
2504.000000	1.329889
2502.000000	1.329926
2500.000000	1.330047
2498.000000	1.330102
2496.000000	1.330070
2494.000000	1.330027
2492.000000	1.330072
2490.000000	1.330090
2488.000000	1.329986
2486.000000	1.329873
2484.000000	1.329817
2482.000000	1.329799
2480.000000	1.329801
2478.000000	1.329864
2476.000000	1.330001
2474.000000	1.330059
2472.000000	1.330011
2470.000000	1.330000
2468.000000	1.330107
2466.000000	1.330152
2464.000000	1.330106
2462.000000	1.330065
2460.000000	1.330039
2458.000000	1.330108
2456.000000	1.330210
2454.000000	1.330162
2452.000000	1.330156
2450.000000	1.330133
2448.000000	1.330078
2446.000000	1.330090
2444.000000	1.330153
2442.000000	1.330172
2440.000000	1.330191
2438.000000	1.330188
2436.000000	1.330186
2434.000000	1.330121
2432.000000	1.330044
2430.000000	1.330028
2428.000000	1.330091
2426.000000	1.330150
2424.000000	1.330206
2422.000000	1.330243
2420.000000	1.330218
2418.000000	1.330192
2416.000000	1.330251
2414.000000	1.330257
2412.000000	1.330170
2410.000000	1.330179
2408.000000	1.330222
2406.000000	1.330194
2404.000000	1.330209
2402.000000	1.330177
2400.000000	1.330112
2398.000000	1.330094
2396.000000	1.330120
2394.000000	1.330094
2392.000000	1.330101
2390.000000	1.330114
2388.000000	1.330083
2386.000000	1.330061
2384.000000	1.330002
2382.000000	1.329805
2380.000000	1.329566
2378.000000	1.329260
2376.000000	1.328889
2374.000000	1.328519
2372.000000	1.328246
2370.000000	1.327960
2368.000000	1.327621
2366.000000	1.327422
2364.000000	1.327498
2362.000000	1.327707
2360.000000	1.327956
2358.000000	1.328310
2356.000000	1.328840
2354.000000	1.329385
2352.000000	1.329767
2350.000000	1.329666
2348.000000	1.328944
2346.000000	1.328411
2344.000000	1.328482
2342.000000	1.328981
2340.000000	1.329697
2338.000000	1.329997
2336.000000	1.329660
2334.000000	1.329156
2332.000000	1.328975
2330.000000	1.328995
2328.000000	1.329186
2326.000000	1.329402
2324.000000	1.329505
2322.000000	1.329530
2320.000000	1.329633
2318.000000	1.329791
2316.000000	1.329869
2314.000000	1.329883
2312.000000	1.329966
2310.000000	1.330074
2308.000000	1.330170
2306.000000	1.330182
2304.000000	1.330236
2302.000000	1.330346
2300.000000	1.330360
2298.000000	1.330253
2296.000000	1.330221
2294.000000	1.330301
2292.000000	1.330318
2290.000000	1.330312
2288.000000	1.330409
2286.000000	1.330403
2284.000000	1.330332
2282.000000	1.330311
2280.000000	1.330431
2278.000000	1.330566
2276.000000	1.330606
2274.000000	1.330620
2272.000000	1.330612
2270.000000	1.330535
2268.000000	1.330492
2266.000000	1.330481
2264.000000	1.330447
2262.000000	1.330399
2260.000000	1.330469
2258.000000	1.330512
2256.000000	1.330532
2254.000000	1.330442
2252.000000	1.330370
2250.000000	1.330399
2248.000000	1.330412
2246.000000	1.330355
2244.000000	1.330363
2242.000000	1.330317
2240.000000	1.330283
2238.000000	1.330301
2236.000000	1.330330
2234.000000	1.330273
2232.000000	1.330326
2230.000000	1.330429
2228.000000	1.330423
2226.000000	1.330259
2224.000000	1.330222
2222.000000	1.330224
2220.000000	1.330162
2218.000000	1.330093
2216.000000	1.330107
2214.000000	1.330144
2212.000000	1.330166
2210.000000	1.330188
2208.000000	1.330141
2206.000000	1.330055
2204.000000	1.330097
2202.000000	1.330095
2200.000000	1.329978
2198.000000	1.329821
2196.000000	1.329766
2194.000000	1.329796
2192.000000	1.329783
2190.000000	1.329626
2188.000000	1.329600
2186.000000	1.329620
2184.000000	1.329596
2182.000000	1.329647
2180.000000	1.329724
2178.000000	1.329642
2176.000000	1.329546
2174.000000	1.329510
2172.000000	1.329415
2170.000000	1.329326
2168.000000	1.329345
2166.000000	1.329321
2164.000000	1.329299
2162.000000	1.329141
2160.000000	1.329026
2158.000000	1.329090
2156.000000	1.329129
2154.000000	1.329032
2152.000000	1.328983
2150.000000	1.328862
2148.000000	1.328742
2146.000000	1.328716
2144.000000	1.328738
2142.000000	1.328692
2140.000000	1.328680
2138.000000	1.328580
2136.000000	1.328536
2134.000000	1.328494
2132.000000	1.328417
2130.000000	1.328390
2128.000000	1.328403
2126.000000	1.328317
2124.000000	1.328324
2122.000000	1.328320
2120.000000	1.328269
2118.000000	1.328235
2116.000000	1.328159
2114.000000	1.328115
2112.000000	1.328097
2110.000000	1.327950
2108.000000	1.327842
2106.000000	1.327859
2104.000000	1.327912
2102.000000	1.327873
2100.000000	1.327775
2098.000000	1.327721
2096.000000	1.327790
2094.000000	1.327806
2092.000000	1.327789
2090.000000	1.327761
2088.000000	1.327706
2086.000000	1.327664
2084.000000	1.327611
2082.000000	1.327506
2080.000000	1.327485
2078.000000	1.327523
2076.000000	1.327546
2074.000000	1.327477
2072.000000	1.327407
2070.000000	1.327331
2068.000000	1.327322
2066.000000	1.327231
2064.000000	1.327203
2062.000000	1.327208
2060.000000	1.327173
2058.000000	1.327126
2056.000000	1.327166
2054.000000	1.327161
2052.000000	1.327109
2050.000000	1.326986
2048.000000	1.326896
2046.000000	1.326976
2044.000000	1.326985
2042.000000	1.326854
2040.000000	1.326856
2038.000000	1.326896
2036.000000	1.326872
2034.000000	1.326788
2032.000000	1.326796
2030.000000	1.326833
2028.000000	1.326935
2026.000000	1.326838
2024.000000	1.326649
2022.000000	1.326504
2020.000000	1.326286
2018.000000	1.326136
2016.000000	1.326452
2014.000000	1.326720
2012.000000	1.326641
2010.000000	1.326547
2008.000000	1.326560
2006.000000	1.326550
2004.000000	1.326493
2002.000000	1.326255
2000.000000	1.326334
1998.000000	1.326550
1996.000000	1.326538
1994.000000	1.326231
1992.000000	1.326100
1990.000000	1.326144
1988.000000	1.326230
1986.000000	1.326277
1984.000000	1.326162
1982.000000	1.326213
1980.000000	1.326247
1978.000000	1.326197
1976.000000	1.326234
1974.000000	1.326229
1972.000000	1.326220
1970.000000	1.326172
1968.000000	1.325996
1966.000000	1.326080
1964.000000	1.326275
1962.000000	1.326208
1960.000000	1.326173
1958.000000	1.326435
1956.000000	1.326482
1954.000000	1.326303
1952.000000	1.326253
1950.000000	1.326227
1948.000000	1.326213
1946.000000	1.326038
1944.000000	1.325643
1942.000000	1.325739
1940.000000	1.326247
1938.000000	1.326354
1936.000000	1.326392
1934.000000	1.326286
1932.000000	1.326283
1930.000000	1.326361
1928.000000	1.326445
1926.000000	1.326271
1924.000000	1.325981
1922.000000	1.326070
1920.000000	1.325700
1918.000000	1.325651
1916.000000	1.326565
1914.000000	1.326541
1912.000000	1.326289
1910.000000	1.326210
1908.000000	1.326463
1906.000000	1.326608
1904.000000	1.326669
1902.000000	1.326717
1900.000000	1.326831
1898.000000	1.326691
1896.000000	1.326616
1894.000000	1.326736
1892.000000	1.326442
1890.000000	1.326092
1888.000000	1.326719
1886.000000	1.326837
1884.000000	1.326778
1882.000000	1.326789
1880.000000	1.326853
1878.000000	1.326871
1876.000000	1.326946
1874.000000	1.326780
1872.000000	1.326052
1870.000000	1.325130
1868.000000	1.325928
1866.000000	1.326788
1864.000000	1.326849
1862.000000	1.326695
1860.000000	1.326703
1858.000000	1.326718
1856.000000	1.326879
1854.000000	1.326892
1852.000000	1.326917
1850.000000	1.326590
1848.000000	1.326006
1846.000000	1.324293
1844.000000	1.324651
1842.000000	1.326850
1840.000000	1.326964
1838.000000	1.326698
1836.000000	1.326880
1834.000000	1.326737
1832.000000	1.325661
1830.000000	1.325479
1828.000000	1.326356
1826.000000	1.325936
1824.000000	1.326601
1822.000000	1.327205
1820.000000	1.327157
1818.000000	1.327078
1816.000000	1.327176
1814.000000	1.326859
1812.000000	1.326455
1810.000000	1.326696
1808.000000	1.327141
1806.000000	1.327027
1804.000000	1.326610
1802.000000	1.326005
1800.000000	1.326323
1798.000000	1.326772
1796.000000	1.326151
1794.000000	1.324235
1792.000000	1.324908
1790.000000	1.327046
1788.000000	1.327047
1786.000000	1.326319
1784.000000	1.326690
1782.000000	1.326670
1780.000000	1.326810
1778.000000	1.327026
1776.000000	1.325875
1774.000000	1.323202
1772.000000	1.323943
1770.000000	1.326087
1768.000000	1.326481
1766.000000	1.327505
1764.000000	1.326261
1762.000000	1.325688
1760.000000	1.326926
1758.000000	1.326592
1756.000000	1.326953
1754.000000	1.326157
1752.000000	1.323986
1750.000000	1.325349
1748.000000	1.326910
1746.000000	1.327172
1744.000000	1.326869
1742.000000	1.326167
1740.000000	1.326013
1738.000000	1.326536
1736.000000	1.322057
1734.000000	1.321729
1732.000000	1.327485
1730.000000	1.328499
1728.000000	1.328627
1726.000000	1.328576
1724.000000	1.328476
1722.000000	1.327872
1720.000000	1.324094
1718.000000	1.321598
1716.000000	1.325691
1714.000000	1.328329
1712.000000	1.328914
1710.000000	1.328343
1708.000000	1.327433
1706.000000	1.326729
1704.000000	1.326617
1702.000000	1.321400
1700.000000	1.321672
1698.000000	1.323733
1696.000000	1.323495
1694.000000	1.329250
1692.000000	1.330000
1690.000000	1.328787
1688.000000	1.326683
1686.000000	1.320985
1684.000000	1.323330
1682.000000	1.329615
1680.000000	1.329922
1678.000000	1.328359
1676.000000	1.326334
1674.000000	1.328255
1672.000000	1.327766
1670.000000	1.326731
1668.000000	1.329277
1666.000000	1.329976
1664.000000	1.328304
1662.000000	1.329335
1660.000000	1.330724
1658.000000	1.329831
1656.000000	1.323734
1654.000000	1.316919
1652.000000	1.324867
1650.000000	1.330402
1648.000000	1.326217
1646.000000	1.327146
1644.000000	1.330968
1642.000000	1.331352
1640.000000	1.330274
1638.000000	1.326822
1636.000000	1.325244
1634.000000	1.330197
1632.000000	1.332095
1630.000000	1.330803
1628.000000	1.330255
1626.000000	1.329693
1624.000000	1.328870
1622.000000	1.330373
1620.000000	1.329648
1618.000000	1.325900
1616.000000	1.328174
1614.000000	1.331824
1612.000000	1.331261
1610.000000	1.331262
1608.000000	1.331913
1606.000000	1.332774
1604.000000	1.332928
1602.000000	1.333076
1600.000000	1.333186
1598.000000	1.333155
1596.000000	1.332935
1594.000000	1.333011
1592.000000	1.333018
1590.000000	1.333065
1588.000000	1.332983
1586.000000	1.332921
1584.000000	1.332923
1582.000000	1.333003
1580.000000	1.331975
1578.000000	1.327792
1576.000000	1.328107
1574.000000	1.333011
1572.000000	1.331453
1570.000000	1.330080
1568.000000	1.331908
1566.000000	1.332274
1564.000000	1.331295
1562.000000	1.325845
1560.000000	1.319794
1558.000000	1.325635
1556.000000	1.330595
1554.000000	1.331427
1552.000000	1.332531
1550.000000	1.332487
1548.000000	1.332375
1546.000000	1.330451
1544.000000	1.327802
1542.000000	1.323828
1540.000000	1.323793
1538.000000	1.330676
1536.000000	1.331915
1534.000000	1.330026
1532.000000	1.331999
1530.000000	1.332171
1528.000000	1.330530
1526.000000	1.329733
1524.000000	1.328071
1522.000000	1.325834
1520.000000	1.328866
1518.000000	1.330152
1516.000000	1.330710
1514.000000	1.331433
1512.000000	1.330939
1510.000000	1.328376
1508.000000	1.323053
1506.000000	1.325225
1504.000000	1.331099
1502.000000	1.330092
1500.000000	1.326423
1498.000000	1.323917
1496.000000	1.326883
1494.000000	1.332718
1492.000000	1.333887
1490.000000	1.333785
1488.000000	1.334439
1486.000000	1.334662
1484.000000	1.334290
1482.000000	1.333503
1480.000000	1.333167
1478.000000	1.331755
1476.000000	1.329890
1474.000000	1.327920
1472.000000	1.329572
1470.000000	1.332459
1468.000000	1.331836
1466.000000	1.330195
1464.000000	1.331170
1462.000000	1.331675
1460.000000	1.327950
1458.000000	1.323530
1456.000000	1.326896
1454.000000	1.331252
1452.000000	1.331864
1450.000000	1.332864
1448.000000	1.333557
1446.000000	1.333918
1444.000000	1.333189
1442.000000	1.332783
1440.000000	1.331552
1438.000000	1.328828
1436.000000	1.330134
1434.000000	1.332564
1432.000000	1.331725
1430.000000	1.331594
1428.000000	1.332227
1426.000000	1.332152
1424.000000	1.331688
1422.000000	1.330259
1420.000000	1.328124
1418.000000	1.330431
1416.000000	1.332177
1414.000000	1.332150
1412.000000	1.331792
1410.000000	1.331559
1408.000000	1.330931
1406.000000	1.330699
1404.000000	1.331762
1402.000000	1.332489
1400.000000	1.331842
1398.000000	1.331960
1396.000000	1.331265
1394.000000	1.331710
1392.000000	1.332575
1390.000000	1.331524
1388.000000	1.330307
1386.000000	1.331268
1384.000000	1.332358
1382.000000	1.332658
1380.000000	1.332298
1378.000000	1.331963
1376.000000	1.331450
1374.000000	1.331325
1372.000000	1.331775
1370.000000	1.331735
1368.000000	1.331742
1366.000000	1.331499
1364.000000	1.330624
1362.000000	1.330768
1360.000000	1.331493
1358.000000	1.331648
1356.000000	1.331454
1354.000000	1.331457
1352.000000	1.331489
1350.000000	1.331507
1348.000000	1.331472
1346.000000	1.331476
1344.000000	1.331285
1342.000000	1.330812
1340.000000	1.330507
1338.000000	1.330880
1336.000000	1.331245
1334.000000	1.331295
1332.000000	1.331125
1330.000000	1.331150
1328.000000	1.331117
1326.000000	1.331052
1324.000000	1.330919
1322.000000	1.330732
1320.000000	1.330457
1318.000000	1.330374
1316.000000	1.330326
1314.000000	1.330215
1312.000000	1.330219
1310.000000	1.330278
1308.000000	1.330175
1306.000000	1.330155
1304.000000	1.330153
1302.000000	1.330147
1300.000000	1.330108
1298.000000	1.330032
1296.000000	1.329786
1294.000000	1.329738
1292.000000	1.329809
1290.000000	1.329798
1288.000000	1.329679
1286.000000	1.329742
1284.000000	1.329809
1282.000000	1.329819
1280.000000	1.329662
1278.000000	1.329642
1276.000000	1.329796
1274.000000	1.329964
1272.000000	1.329930
1270.000000	1.330099
1268.000000	1.330683
1266.000000	1.331897
1264.000000	1.333916
1262.000000	1.336609
1260.000000	1.338967
1258.000000	1.339766
1256.000000	1.338698
1254.000000	1.336873
1252.000000	1.335161
1250.000000	1.334050
1248.000000	1.333327
1246.000000	1.333081
1244.000000	1.333159
1242.000000	1.333238
1240.000000	1.333306
1238.000000	1.333562
1236.000000	1.333913
1234.000000	1.334262
1232.000000	1.334534
1230.000000	1.334939
1228.000000	1.335158
1226.000000	1.335286
1224.000000	1.335485
1222.000000	1.335729
1220.000000	1.335921
1218.000000	1.336104
1216.000000	1.336198
1214.000000	1.336479
1212.000000	1.336881
1210.000000	1.337217
1208.000000	1.337494
1206.000000	1.337979
1204.000000	1.338218
1202.000000	1.338380
1200.000000	1.338515
1198.000000	1.338793
1196.000000	1.339135
1194.000000	1.339432
1192.000000	1.339650
1190.000000	1.339975
1188.000000	1.340343
1186.000000	1.340640
1184.000000	1.340622
1182.000000	1.340917
1180.000000	1.341993
1178.000000	1.342755
1176.000000	1.342831
1174.000000	1.342847
1172.000000	1.343192
1170.000000	1.343880
1168.000000	1.344264
1166.000000	1.344561
1164.000000	1.344694
1162.000000	1.344983
1160.000000	1.345470
1158.000000	1.345953
1156.000000	1.346311
1154.000000	1.346539
1152.000000	1.346759
1150.000000	1.347114
1148.000000	1.347471
1146.000000	1.347780
1144.000000	1.347919
1142.000000	1.348485
1140.000000	1.348776
1138.000000	1.348648
1136.000000	1.349042
1134.000000	1.349522
1132.000000	1.349569
1130.000000	1.350063
1128.000000	1.350841
1126.000000	1.351133
1124.000000	1.350863
1122.000000	1.350824
1120.000000	1.351205
1118.000000	1.351539
1116.000000	1.352063
1114.000000	1.352490
1112.000000	1.352645
1110.000000	1.353076
1108.000000	1.353798
1106.000000	1.354361
1104.000000	1.354781
1102.000000	1.355419
1100.000000	1.356029
1098.000000	1.356462
1096.000000	1.356509
1094.000000	1.356406
1092.000000	1.356371
1090.000000	1.356551
1088.000000	1.356638
1086.000000	1.357116
1084.000000	1.357013
1082.000000	1.356681
1080.000000	1.356718
1078.000000	1.356602
1076.000000	1.356282
1074.000000	1.356009
1072.000000	1.355745
1070.000000	1.355637
1068.000000	1.355028
1066.000000	1.354804
1064.000000	1.354776
1062.000000	1.354138
1060.000000	1.353454
1058.000000	1.352578
1056.000000	1.351043
1054.000000	1.349822
1052.000000	1.349972
1050.000000	1.351323
1048.000000	1.352437
1046.000000	1.351998
1044.000000	1.350890
1042.000000	1.350388
1040.000000	1.349678
1038.000000	1.349067
1036.000000	1.348604
1034.000000	1.348453
1032.000000	1.347997
1030.000000	1.347871
1028.000000	1.348006
1026.000000	1.347235
1024.000000	1.345847
1022.000000	1.344875
1020.000000	1.344475
1018.000000	1.344291
1016.000000	1.343757
1014.000000	1.342188
1012.000000	1.340354
1010.000000	1.339310
1008.000000	1.337101
1006.000000	1.334967
1004.000000	1.333482
1002.000000	1.328491
1000.000000	1.326204
