PE IR       SUBTECH     SPECTRUM    ASCII       PEDS        4.00        
   -1
TE110A_038_110K_SB.ASC
20/05/14
13:01:04.00
20/05/14
13:01:04.00
Administrator
TE110A.Thursday, May 14 2020, 007.
1000.000000
#HDR
-1
-1
#GR
cm-1
EGY
1.0
0.0
6000.000000
-2.000000
2501
8
6.599252
0.674277
#DATA
6000.000000	1.034518
5998.000000	1.037294
5996.000000	1.039496
5994.000000	1.041383
5992.000000	1.042799
5990.000000	1.045089
5988.000000	1.047939
5986.000000	1.051216
5984.000000	1.052893
5982.000000	1.053849
5980.000000	1.056003
5978.000000	1.058330
5976.000000	1.060526
5974.000000	1.061151
5972.000000	1.062199
5970.000000	1.064989
5968.000000	1.067978
5966.000000	1.070461
5964.000000	1.072670
5962.000000	1.075263
5960.000000	1.077538
5958.000000	1.079446
5956.000000	1.080945
5954.000000	1.082960
5952.000000	1.085151
5950.000000	1.087353
5948.000000	1.089426
5946.000000	1.091540
5944.000000	1.093784
5942.000000	1.096579
5940.000000	1.100423
5938.000000	1.103339
5936.000000	1.104711
5934.000000	1.106199
5932.000000	1.108527
5930.000000	1.110954
5928.000000	1.112500
5926.000000	1.113099
5924.000000	1.115138
5922.000000	1.118266
5920.000000	1.120406
5918.000000	1.122295
5916.000000	1.123915
5914.000000	1.126793
5912.000000	1.130136
5910.000000	1.132844
5908.000000	1.134689
5906.000000	1.137181
5904.000000	1.140205
5902.000000	1.143493
5900.000000	1.145225
5898.000000	1.145224
5896.000000	1.146192
5894.000000	1.149452
5892.000000	1.153757
5890.000000	1.157176
5888.000000	1.159162
5886.000000	1.160828
5884.000000	1.163501
5882.000000	1.166316
5880.000000	1.167793
5878.000000	1.169381
5876.000000	1.171189
5874.000000	1.173465
5872.000000	1.176175
5870.000000	1.178118
5868.000000	1.180645
5866.000000	1.182976
5864.000000	1.184493
5862.000000	1.186709
5860.000000	1.189896
5858.000000	1.192720
5856.000000	1.194978
5854.000000	1.196701
5852.000000	1.199538
5850.000000	1.203422
5848.000000	1.206921
5846.000000	1.209400
5844.000000	1.211991
5842.000000	1.214952
5840.000000	1.218082
5838.000000	1.220496
5836.000000	1.222775
5834.000000	1.226042
5832.000000	1.229085
5830.000000	1.231176
5828.000000	1.232099
5826.000000	1.234164
5824.000000	1.236661
5822.000000	1.238764
5820.000000	1.241046
5818.000000	1.244055
5816.000000	1.247575
5814.000000	1.249384
5812.000000	1.250557
5810.000000	1.252486
5808.000000	1.256795
5806.000000	1.260938
5804.000000	1.263173
5802.000000	1.264006
5800.000000	1.266208
5798.000000	1.269777
5796.000000	1.273205
5794.000000	1.274797
5792.000000	1.275443
5790.000000	1.277437
5788.000000	1.280575
5786.000000	1.284295
5784.000000	1.287288
5782.000000	1.290254
5780.000000	1.293279
5778.000000	1.296892
5776.000000	1.300444
5774.000000	1.302863
5772.000000	1.305211
5770.000000	1.307645
5768.000000	1.309933
5766.000000	1.312071
5764.000000	1.314123
5762.000000	1.317338
5760.000000	1.321166
5758.000000	1.323962
5756.000000	1.326240
5754.000000	1.329165
5752.000000	1.332166
5750.000000	1.334880
5748.000000	1.337367
5746.000000	1.340754
5744.000000	1.343893
5742.000000	1.346154
5740.000000	1.348141
5738.000000	1.350037
5736.000000	1.351932
5734.000000	1.353377
5732.000000	1.355878
5730.000000	1.359938
5728.000000	1.363808
5726.000000	1.366910
5724.000000	1.369956
5722.000000	1.373009
5720.000000	1.375714
5718.000000	1.377596
5716.000000	1.379082
5714.000000	1.381326
5712.000000	1.384184
5710.000000	1.387129
5708.000000	1.390401
5706.000000	1.392555
5704.000000	1.394834
5702.000000	1.397615
5700.000000	1.400862
5698.000000	1.403492
5696.000000	1.406329
5694.000000	1.410292
5692.000000	1.414198
5690.000000	1.416859
5688.000000	1.418524
5686.000000	1.420677
5684.000000	1.424050
5682.000000	1.427709
5680.000000	1.431096
5678.000000	1.433446
5676.000000	1.435844
5674.000000	1.439331
5672.000000	1.442967
5670.000000	1.445664
5668.000000	1.448080
5666.000000	1.450720
5664.000000	1.453499
5662.000000	1.456526
5660.000000	1.460100
5658.000000	1.463792
5656.000000	1.466943
5654.000000	1.469051
5652.000000	1.470962
5650.000000	1.473291
5648.000000	1.476325
5646.000000	1.479121
5644.000000	1.481906
5642.000000	1.485358
5640.000000	1.489399
5638.000000	1.492127
5636.000000	1.493411
5634.000000	1.495421
5632.000000	1.499074
5630.000000	1.503165
5628.000000	1.506261
5626.000000	1.508379
5624.000000	1.510980
5622.000000	1.514093
5620.000000	1.517243
5618.000000	1.520005
5616.000000	1.522144
5614.000000	1.525372
5612.000000	1.528201
5610.000000	1.531169
5608.000000	1.534432
5606.000000	1.538302
5604.000000	1.541868
5602.000000	1.544199
5600.000000	1.546311
5598.000000	1.549145
5596.000000	1.551925
5594.000000	1.554787
5592.000000	1.558103
5590.000000	1.561970
5588.000000	1.564852
5586.000000	1.567208
5584.000000	1.570337
5582.000000	1.573905
5580.000000	1.577035
5578.000000	1.578915
5576.000000	1.581381
5574.000000	1.584863
5572.000000	1.588673
5570.000000	1.592301
5568.000000	1.595318
5566.000000	1.597794
5564.000000	1.600316
5562.000000	1.603704
5560.000000	1.607150
5558.000000	1.610311
5556.000000	1.612834
5554.000000	1.615507
5552.000000	1.618006
5550.000000	1.621180
5548.000000	1.624193
5546.000000	1.628052
5544.000000	1.631526
5542.000000	1.634613
5540.000000	1.637047
5538.000000	1.639907
5536.000000	1.643592
5534.000000	1.647502
5532.000000	1.650427
5530.000000	1.652632
5528.000000	1.654783
5526.000000	1.657690
5524.000000	1.661338
5522.000000	1.664552
5520.000000	1.667043
5518.000000	1.669758
5516.000000	1.672459
5514.000000	1.675262
5512.000000	1.678680
5510.000000	1.682484
5508.000000	1.685790
5506.000000	1.688642
5504.000000	1.692591
5502.000000	1.697144
5500.000000	1.700066
5498.000000	1.701481
5496.000000	1.703165
5494.000000	1.706574
5492.000000	1.710473
5490.000000	1.713826
5488.000000	1.717238
5486.000000	1.720719
5484.000000	1.724611
5482.000000	1.728033
5480.000000	1.730507
5478.000000	1.733350
5476.000000	1.735642
5474.000000	1.738009
5472.000000	1.740857
5470.000000	1.744814
5468.000000	1.750058
5466.000000	1.754229
5464.000000	1.757065
5462.000000	1.758746
5460.000000	1.760785
5458.000000	1.764036
5456.000000	1.768167
5454.000000	1.771878
5452.000000	1.775365
5450.000000	1.778151
5448.000000	1.779901
5446.000000	1.781797
5444.000000	1.784505
5442.000000	1.788524
5440.000000	1.792457
5438.000000	1.795356
5436.000000	1.796975
5434.000000	1.798535
5432.000000	1.802446
5430.000000	1.806864
5428.000000	1.810281
5426.000000	1.813092
5424.000000	1.817777
5422.000000	1.823002
5420.000000	1.826454
5418.000000	1.828489
5416.000000	1.830644
5414.000000	1.832627
5412.000000	1.834531
5410.000000	1.837746
5408.000000	1.842294
5406.000000	1.846593
5404.000000	1.849992
5402.000000	1.853430
5400.000000	1.857840
5398.000000	1.861747
5396.000000	1.863852
5394.000000	1.864878
5392.000000	1.866921
5390.000000	1.871483
5388.000000	1.875881
5386.000000	1.878870
5384.000000	1.881387
5382.000000	1.885487
5380.000000	1.890054
5378.000000	1.892553
5376.000000	1.894374
5374.000000	1.897696
5372.000000	1.902458
5370.000000	1.906081
5368.000000	1.908822
5366.000000	1.911882
5364.000000	1.915002
5362.000000	1.918096
5360.000000	1.921387
5358.000000	1.925402
5356.000000	1.928825
5354.000000	1.931052
5352.000000	1.932665
5350.000000	1.934916
5348.000000	1.938536
5346.000000	1.942242
5344.000000	1.945486
5342.000000	1.948262
5340.000000	1.950956
5338.000000	1.953175
5336.000000	1.955954
5334.000000	1.959932
5332.000000	1.964820
5330.000000	1.969871
5328.000000	1.973520
5326.000000	1.976516
5324.000000	1.979359
5322.000000	1.982717
5320.000000	1.986470
5318.000000	1.989198
5316.000000	1.992125
5314.000000	1.995438
5312.000000	1.999454
5310.000000	2.003270
5308.000000	2.005790
5306.000000	2.008619
5304.000000	2.012288
5302.000000	2.017040
5300.000000	2.021512
5298.000000	2.024503
5296.000000	2.026997
5294.000000	2.029525
5292.000000	2.033090
5290.000000	2.036237
5288.000000	2.040022
5286.000000	2.043837
5284.000000	2.046682
5282.000000	2.049155
5280.000000	2.052467
5278.000000	2.057647
5276.000000	2.062563
5274.000000	2.066780
5272.000000	2.070060
5270.000000	2.072618
5268.000000	2.074843
5266.000000	2.076031
5264.000000	2.077657
5262.000000	2.080422
5260.000000	2.084895
5258.000000	2.089021
5256.000000	2.092808
5254.000000	2.096098
5252.000000	2.098795
5250.000000	2.100782
5248.000000	2.102897
5246.000000	2.106092
5244.000000	2.110767
5242.000000	2.115499
5240.000000	2.119709
5238.000000	2.123180
5236.000000	2.125974
5234.000000	2.127650
5232.000000	2.129209
5230.000000	2.133019
5228.000000	2.137436
5226.000000	2.140929
5224.000000	2.143525
5222.000000	2.146947
5220.000000	2.151541
5218.000000	2.156611
5216.000000	2.161177
5214.000000	2.164138
5212.000000	2.166743
5210.000000	2.169592
5208.000000	2.172184
5206.000000	2.173928
5204.000000	2.176525
5202.000000	2.180518
5200.000000	2.185349
5198.000000	2.189807
5196.000000	2.193927
5194.000000	2.197108
5192.000000	2.200822
5190.000000	2.205251
5188.000000	2.209454
5186.000000	2.211705
5184.000000	2.213295
5182.000000	2.216889
5180.000000	2.221347
5178.000000	2.224868
5176.000000	2.227599
5174.000000	2.231334
5172.000000	2.235206
5170.000000	2.238516
5168.000000	2.241113
5166.000000	2.244399
5164.000000	2.247854
5162.000000	2.251838
5160.000000	2.255434
5158.000000	2.258588
5156.000000	2.262249
5154.000000	2.266864
5152.000000	2.271138
5150.000000	2.274666
5148.000000	2.277926
5146.000000	2.281113
5144.000000	2.284285
5142.000000	2.288331
5140.000000	2.292831
5138.000000	2.295942
5136.000000	2.297588
5134.000000	2.299591
5132.000000	2.303580
5130.000000	2.308988
5128.000000	2.313649
5126.000000	2.315968
5124.000000	2.317139
5122.000000	2.320107
5120.000000	2.324869
5118.000000	2.329356
5116.000000	2.332679
5114.000000	2.335920
5112.000000	2.339724
5110.000000	2.343119
5108.000000	2.346067
5106.000000	2.349249
5104.000000	2.353369
5102.000000	2.357781
5100.000000	2.361599
5098.000000	2.364340
5096.000000	2.366848
5094.000000	2.370338
5092.000000	2.374814
5090.000000	2.378572
5088.000000	2.381709
5086.000000	2.385900
5084.000000	2.390925
5082.000000	2.394535
5080.000000	2.397084
5078.000000	2.399903
5076.000000	2.403264
5074.000000	2.406406
5072.000000	2.409461
5070.000000	2.413377
5068.000000	2.417835
5066.000000	2.422053
5064.000000	2.425697
5062.000000	2.429130
5060.000000	2.433308
5058.000000	2.437812
5056.000000	2.442029
5054.000000	2.444814
5052.000000	2.447215
5050.000000	2.450553
5048.000000	2.454063
5046.000000	2.456730
5044.000000	2.459411
5042.000000	2.463309
5040.000000	2.467904
5038.000000	2.471698
5036.000000	2.474227
5034.000000	2.477158
5032.000000	2.481112
5030.000000	2.485099
5028.000000	2.488495
5026.000000	2.492406
5024.000000	2.496445
5022.000000	2.500143
5020.000000	2.503280
5018.000000	2.506587
5016.000000	2.509883
5014.000000	2.513698
5012.000000	2.518440
5010.000000	2.522992
5008.000000	2.526177
5006.000000	2.528375
5004.000000	2.531297
5002.000000	2.535157
5000.000000	2.538996
4998.000000	2.542553
4996.000000	2.545855
4994.000000	2.549886
4992.000000	2.553459
4990.000000	2.556923
4988.000000	2.560649
4986.000000	2.565042
4984.000000	2.569669
4982.000000	2.573437
4980.000000	2.576445
4978.000000	2.579639
4976.000000	2.583897
4974.000000	2.587882
4972.000000	2.591916
4970.000000	2.596601
4968.000000	2.599848
4966.000000	2.602189
4964.000000	2.605055
4962.000000	2.609289
4960.000000	2.613022
4958.000000	2.616045
4956.000000	2.619039
4954.000000	2.621751
4952.000000	2.625038
4950.000000	2.629435
4948.000000	2.634653
4946.000000	2.638434
4944.000000	2.640662
4942.000000	2.643735
4940.000000	2.648288
4938.000000	2.653373
4936.000000	2.657145
4934.000000	2.659822
4932.000000	2.662598
4930.000000	2.666192
4928.000000	2.669741
4926.000000	2.672914
4924.000000	2.676005
4922.000000	2.679443
4920.000000	2.683030
4918.000000	2.687182
4916.000000	2.692069
4914.000000	2.696759
4912.000000	2.700660
4910.000000	2.703045
4908.000000	2.705457
4906.000000	2.709252
4904.000000	2.714136
4902.000000	2.718336
4900.000000	2.721223
4898.000000	2.724005
4896.000000	2.727499
4894.000000	2.731792
4892.000000	2.736575
4890.000000	2.740795
4888.000000	2.744580
4886.000000	2.748453
4884.000000	2.752278
4882.000000	2.755280
4880.000000	2.758967
4878.000000	2.763536
4876.000000	2.766804
4874.000000	2.769215
4872.000000	2.773110
4870.000000	2.777680
4868.000000	2.781089
4866.000000	2.783784
4864.000000	2.787057
4862.000000	2.790923
4860.000000	2.795126
4858.000000	2.799294
4856.000000	2.802757
4854.000000	2.805072
4852.000000	2.807284
4850.000000	2.810681
4848.000000	2.815790
4846.000000	2.821193
4844.000000	2.825870
4842.000000	2.829880
4840.000000	2.833488
4838.000000	2.836183
4836.000000	2.838006
4834.000000	2.840963
4832.000000	2.845788
4830.000000	2.850848
4828.000000	2.853970
4826.000000	2.856328
4824.000000	2.860051
4822.000000	2.864452
4820.000000	2.868427
4818.000000	2.872045
4816.000000	2.876566
4814.000000	2.881853
4812.000000	2.885949
4810.000000	2.888365
4808.000000	2.891392
4806.000000	2.895667
4804.000000	2.898857
4802.000000	2.901855
4800.000000	2.906516
4798.000000	2.911918
4796.000000	2.915787
4794.000000	2.918296
4792.000000	2.921175
4790.000000	2.925841
4788.000000	2.930735
4786.000000	2.933711
4784.000000	2.936160
4782.000000	2.940537
4780.000000	2.944826
4778.000000	2.948712
4776.000000	2.953066
4774.000000	2.957081
4772.000000	2.959989
4770.000000	2.963556
4768.000000	2.967712
4766.000000	2.971570
4764.000000	2.975137
4762.000000	2.978617
4760.000000	2.981720
4758.000000	2.984813
4756.000000	2.988556
4754.000000	2.993422
4752.000000	2.997365
4750.000000	2.999974
4748.000000	3.003657
4746.000000	3.009060
4744.000000	3.013473
4742.000000	3.016704
4740.000000	3.020303
4738.000000	3.024402
4736.000000	3.027724
4734.000000	3.030264
4732.000000	3.032715
4730.000000	3.036028
4728.000000	3.040543
4726.000000	3.045187
4724.000000	3.050001
4722.000000	3.054658
4720.000000	3.058277
4718.000000	3.061743
4716.000000	3.066519
4714.000000	3.070808
4712.000000	3.073445
4710.000000	3.076976
4708.000000	3.081608
4706.000000	3.085626
4704.000000	3.089263
4702.000000	3.093068
4700.000000	3.096809
4698.000000	3.100934
4696.000000	3.105060
4694.000000	3.108107
4692.000000	3.111235
4690.000000	3.115998
4688.000000	3.121277
4686.000000	3.125491
4684.000000	3.128800
4682.000000	3.132475
4680.000000	3.137098
4678.000000	3.141605
4676.000000	3.145369
4674.000000	3.148926
4672.000000	3.152484
4670.000000	3.155595
4668.000000	3.158757
4666.000000	3.163052
4664.000000	3.167816
4662.000000	3.171649
4660.000000	3.174256
4658.000000	3.177416
4656.000000	3.181150
4654.000000	3.185016
4652.000000	3.188619
4650.000000	3.192737
4648.000000	3.196891
4646.000000	3.200813
4644.000000	3.204149
4642.000000	3.207693
4640.000000	3.211446
4638.000000	3.214929
4636.000000	3.218556
4634.000000	3.223245
4632.000000	3.228271
4630.000000	3.232514
4628.000000	3.236340
4626.000000	3.240058
4624.000000	3.243639
4622.000000	3.247672
4620.000000	3.251748
4618.000000	3.255327
4616.000000	3.258708
4614.000000	3.262728
4612.000000	3.267495
4610.000000	3.272251
4608.000000	3.276366
4606.000000	3.280066
4604.000000	3.283872
4602.000000	3.287536
4600.000000	3.291602
4598.000000	3.296590
4596.000000	3.301569
4594.000000	3.305560
4592.000000	3.308838
4590.000000	3.312490
4588.000000	3.316755
4586.000000	3.321599
4584.000000	3.325932
4582.000000	3.330083
4580.000000	3.333598
4578.000000	3.336840
4576.000000	3.341128
4574.000000	3.345814
4572.000000	3.348776
4570.000000	3.351461
4568.000000	3.355302
4566.000000	3.359867
4564.000000	3.364238
4562.000000	3.368077
4560.000000	3.371837
4558.000000	3.376072
4556.000000	3.379903
4554.000000	3.384167
4552.000000	3.389278
4550.000000	3.393775
4548.000000	3.396928
4546.000000	3.400267
4544.000000	3.404167
4542.000000	3.408014
4540.000000	3.411896
4538.000000	3.416123
4536.000000	3.420061
4534.000000	3.424109
4532.000000	3.428478
4530.000000	3.432659
4528.000000	3.437400
4526.000000	3.442400
4524.000000	3.446035
4522.000000	3.448910
4520.000000	3.452890
4518.000000	3.457816
4516.000000	3.462205
4514.000000	3.465384
4512.000000	3.468603
4510.000000	3.472701
4508.000000	3.477108
4506.000000	3.481749
4504.000000	3.486067
4502.000000	3.489505
4500.000000	3.492629
4498.000000	3.496369
4496.000000	3.500031
4494.000000	3.503749
4492.000000	3.508689
4490.000000	3.514529
4488.000000	3.518890
4486.000000	3.522286
4484.000000	3.526101
4482.000000	3.530220
4480.000000	3.534114
4478.000000	3.537871
4476.000000	3.541527
4474.000000	3.545618
4472.000000	3.549788
4470.000000	3.554140
4468.000000	3.558400
4466.000000	3.562030
4464.000000	3.565697
4462.000000	3.570173
4460.000000	3.575125
4458.000000	3.579677
4456.000000	3.583263
4454.000000	3.586532
4452.000000	3.590696
4450.000000	3.594780
4448.000000	3.598442
4446.000000	3.602461
4444.000000	3.606863
4442.000000	3.610490
4440.000000	3.613023
4438.000000	3.616000
4436.000000	3.620627
4434.000000	3.625507
4432.000000	3.629879
4430.000000	3.634119
4428.000000	3.638398
4426.000000	3.643149
4424.000000	3.647378
4422.000000	3.649801
4420.000000	3.652533
4418.000000	3.657192
4416.000000	3.662684
4414.000000	3.667784
4412.000000	3.671875
4410.000000	3.675478
4408.000000	3.679711
4406.000000	3.684350
4404.000000	3.688686
4402.000000	3.692952
4400.000000	3.696648
4398.000000	3.699951
4396.000000	3.704243
4394.000000	3.708573
4392.000000	3.712343
4390.000000	3.716787
4388.000000	3.721193
4386.000000	3.724899
4384.000000	3.728836
4382.000000	3.732341
4380.000000	3.735142
4378.000000	3.737852
4376.000000	3.741337
4374.000000	3.745560
4372.000000	3.749896
4370.000000	3.754471
4368.000000	3.759528
4366.000000	3.763241
4364.000000	3.765338
4362.000000	3.768504
4360.000000	3.773347
4358.000000	3.777507
4356.000000	3.781007
4354.000000	3.784478
4352.000000	3.787813
4350.000000	3.791813
4348.000000	3.796773
4346.000000	3.801521
4344.000000	3.805433
4342.000000	3.809027
4340.000000	3.813273
4338.000000	3.817786
4336.000000	3.822833
4334.000000	3.828069
4332.000000	3.832270
4330.000000	3.835587
4328.000000	3.839620
4326.000000	3.844094
4324.000000	3.847966
4322.000000	3.850917
4320.000000	3.854644
4318.000000	3.859575
4316.000000	3.864837
4314.000000	3.870312
4312.000000	3.875434
4310.000000	3.879194
4308.000000	3.882899
4306.000000	3.887152
4304.000000	3.891320
4302.000000	3.895335
4300.000000	3.899587
4298.000000	3.904188
4296.000000	3.907986
4294.000000	3.910252
4292.000000	3.913307
4290.000000	3.918680
4288.000000	3.924168
4286.000000	3.928443
4284.000000	3.933274
4282.000000	3.937758
4280.000000	3.939951
4278.000000	3.941944
4276.000000	3.945544
4274.000000	3.949180
4272.000000	3.953085
4270.000000	3.958003
4268.000000	3.963110
4266.000000	3.967469
4264.000000	3.970708
4262.000000	3.973347
4260.000000	3.976348
4258.000000	3.979957
4256.000000	3.984189
4254.000000	3.988762
4252.000000	3.993531
4250.000000	3.998279
4248.000000	4.002389
4246.000000	4.006137
4244.000000	4.010687
4242.000000	4.015892
4240.000000	4.020717
4238.000000	4.024969
4236.000000	4.028778
4234.000000	4.032496
4232.000000	4.036585
4230.000000	4.040932
4228.000000	4.045467
4226.000000	4.050259
4224.000000	4.054454
4222.000000	4.057805
4220.000000	4.062177
4218.000000	4.068010
4216.000000	4.072738
4214.000000	4.075593
4212.000000	4.078678
4210.000000	4.083116
4208.000000	4.088031
4206.000000	4.092847
4204.000000	4.097639
4202.000000	4.102483
4200.000000	4.107834
4198.000000	4.112880
4196.000000	4.116213
4194.000000	4.118939
4192.000000	4.122870
4190.000000	4.127676
4188.000000	4.132574
4186.000000	4.137036
4184.000000	4.141209
4182.000000	4.145938
4180.000000	4.150464
4178.000000	4.154157
4176.000000	4.158244
4174.000000	4.162998
4172.000000	4.167599
4170.000000	4.171561
4168.000000	4.175435
4166.000000	4.179834
4164.000000	4.184315
4162.000000	4.188439
4160.000000	4.191812
4158.000000	4.194553
4156.000000	4.198830
4154.000000	4.205084
4152.000000	4.210577
4150.000000	4.214488
4148.000000	4.218173
4146.000000	4.221939
4144.000000	4.226195
4142.000000	4.231110
4140.000000	4.236188
4138.000000	4.240752
4136.000000	4.244754
4134.000000	4.248834
4132.000000	4.253342
4130.000000	4.257868
4128.000000	4.261502
4126.000000	4.264952
4124.000000	4.269929
4122.000000	4.275071
4120.000000	4.279364
4118.000000	4.284640
4116.000000	4.290078
4114.000000	4.294821
4112.000000	4.299532
4110.000000	4.303283
4108.000000	4.306383
4106.000000	4.310153
4104.000000	4.315000
4102.000000	4.320540
4100.000000	4.325001
4098.000000	4.328461
4096.000000	4.332499
4094.000000	4.336753
4092.000000	4.339809
4090.000000	4.342659
4088.000000	4.346911
4086.000000	4.352152
4084.000000	4.358115
4082.000000	4.364054
4080.000000	4.368986
4078.000000	4.373120
4076.000000	4.377253
4074.000000	4.381646
4072.000000	4.385622
4070.000000	4.389664
4068.000000	4.394240
4066.000000	4.398915
4064.000000	4.403303
4062.000000	4.407145
4060.000000	4.411501
4058.000000	4.416849
4056.000000	4.422005
4054.000000	4.426283
4052.000000	4.430146
4050.000000	4.434616
4048.000000	4.438769
4046.000000	4.442398
4044.000000	4.447290
4042.000000	4.452658
4040.000000	4.456976
4038.000000	4.461260
4036.000000	4.466277
4034.000000	4.471020
4032.000000	4.475138
4030.000000	4.479387
4028.000000	4.483999
4026.000000	4.488879
4024.000000	4.493673
4022.000000	4.497962
4020.000000	4.502189
4018.000000	4.507288
4016.000000	4.512552
4014.000000	4.516769
4012.000000	4.520852
4010.000000	4.525126
4008.000000	4.529265
4006.000000	4.534192
4004.000000	4.539067
4002.000000	4.543356
4000.000000	4.548767
3998.000000	4.554170
3996.000000	4.557845
3994.000000	4.561086
3992.000000	4.565035
3990.000000	4.569853
3988.000000	4.574549
3986.000000	4.578047
3984.000000	4.581963
3982.000000	4.588127
3980.000000	4.594453
3978.000000	4.597647
3976.000000	4.599514
3974.000000	4.603247
3972.000000	4.608016
3970.000000	4.612444
3968.000000	4.617004
3966.000000	4.622180
3964.000000	4.626759
3962.000000	4.629427
3960.000000	4.633055
3958.000000	4.638811
3956.000000	4.643852
3954.000000	4.648533
3952.000000	4.651546
3950.000000	4.652126
3948.000000	4.655105
3946.000000	4.660209
3944.000000	4.663343
3942.000000	4.666282
3940.000000	4.673805
3938.000000	4.682766
3936.000000	4.687457
3934.000000	4.688025
3932.000000	4.686654
3930.000000	4.689594
3928.000000	4.698725
3926.000000	4.705380
3924.000000	4.708179
3922.000000	4.712656
3920.000000	4.715676
3918.000000	4.714091
3916.000000	4.716068
3914.000000	4.728186
3912.000000	4.742618
3910.000000	4.750534
3908.000000	4.751794
3906.000000	4.742706
3904.000000	4.724133
3902.000000	4.712629
3900.000000	4.717978
3898.000000	4.736182
3896.000000	4.759982
3894.000000	4.772927
3892.000000	4.766703
3890.000000	4.761821
3888.000000	4.767822
3886.000000	4.764186
3884.000000	4.759680
3882.000000	4.773200
3880.000000	4.785973
3878.000000	4.794927
3876.000000	4.805965
3874.000000	4.806420
3872.000000	4.795123
3870.000000	4.778486
3868.000000	4.776840
3866.000000	4.794437
3864.000000	4.805736
3862.000000	4.814976
3860.000000	4.833476
3858.000000	4.842804
3856.000000	4.810129
3854.000000	4.735603
3852.000000	4.703965
3850.000000	4.766501
3848.000000	4.846914
3846.000000	4.879378
3844.000000	4.878312
3842.000000	4.868213
3840.000000	4.849628
3838.000000	4.820842
3836.000000	4.814673
3834.000000	4.846425
3832.000000	4.878707
3830.000000	4.895614
3828.000000	4.907999
3826.000000	4.915614
3824.000000	4.914387
3822.000000	4.895172
3820.000000	4.876996
3818.000000	4.879915
3816.000000	4.878965
3814.000000	4.889746
3812.000000	4.932668
3810.000000	4.959999
3808.000000	4.945998
3806.000000	4.925206
3804.000000	4.924272
3802.000000	4.914497
3800.000000	4.903925
3798.000000	4.932003
3796.000000	4.965899
3794.000000	4.983251
3792.000000	4.998634
3790.000000	5.008354
3788.000000	5.012487
3786.000000	5.014855
3784.000000	5.016503
3782.000000	5.018179
3780.000000	5.016265
3778.000000	5.016426
3776.000000	5.027518
3774.000000	5.039709
3772.000000	5.039271
3770.000000	5.027967
3768.000000	5.023857
3766.000000	5.032987
3764.000000	5.044794
3762.000000	5.053765
3760.000000	5.052813
3758.000000	5.049405
3756.000000	5.053725
3754.000000	5.040099
3752.000000	4.991856
3750.000000	4.953530
3748.000000	4.965655
3746.000000	4.980110
3744.000000	4.962602
3742.000000	4.988401
3740.000000	5.058000
3738.000000	5.078476
3736.000000	5.054156
3734.000000	5.042695
3732.000000	5.057112
3730.000000	5.087893
3728.000000	5.117443
3726.000000	5.126393
3724.000000	5.126187
3722.000000	5.132043
3720.000000	5.142306
3718.000000	5.155174
3716.000000	5.163052
3714.000000	5.151499
3712.000000	5.122950
3710.000000	5.113226
3708.000000	5.139538
3706.000000	5.173093
3704.000000	5.187431
3702.000000	5.183646
3700.000000	5.184262
3698.000000	5.198086
3696.000000	5.208661
3694.000000	5.208904
3692.000000	5.194797
3690.000000	5.161168
3688.000000	5.135397
3686.000000	5.159545
3684.000000	5.211433
3682.000000	5.237837
3680.000000	5.236080
3678.000000	5.213142
3676.000000	5.169923
3674.000000	5.150627
3672.000000	5.168884
3670.000000	5.175857
3668.000000	5.191209
3666.000000	5.236940
3664.000000	5.269246
3662.000000	5.278785
3660.000000	5.280764
3658.000000	5.270900
3656.000000	5.253654
3654.000000	5.252416
3652.000000	5.250570
3650.000000	5.216162
3648.000000	5.191862
3646.000000	5.221624
3644.000000	5.270698
3642.000000	5.296535
3640.000000	5.303452
3638.000000	5.307639
3636.000000	5.309008
3634.000000	5.305334
3632.000000	5.293137
3630.000000	5.258403
3628.000000	5.227841
3626.000000	5.252713
3624.000000	5.300550
3622.000000	5.314046
3620.000000	5.296202
3618.000000	5.281950
3616.000000	5.290636
3614.000000	5.299716
3612.000000	5.295550
3610.000000	5.289473
3608.000000	5.287983
3606.000000	5.300074
3604.000000	5.319671
3602.000000	5.328334
3600.000000	5.327024
3598.000000	5.325617
3596.000000	5.323279
3594.000000	5.320614
3592.000000	5.322603
3590.000000	5.318975
3588.000000	5.303341
3586.000000	5.297850
3584.000000	5.313771
3582.000000	5.330620
3580.000000	5.335470
3578.000000	5.334928
3576.000000	5.335960
3574.000000	5.337335
3572.000000	5.335856
3570.000000	5.327925
3568.000000	5.311246
3566.000000	5.300002
3564.000000	5.308825
3562.000000	5.323634
3560.000000	5.329098
3558.000000	5.329653
3556.000000	5.329971
3554.000000	5.327507
3552.000000	5.323466
3550.000000	5.322254
3548.000000	5.320261
3546.000000	5.314498
3544.000000	5.312137
3542.000000	5.315731
3540.000000	5.318634
3538.000000	5.317833
3536.000000	5.315543
3534.000000	5.313853
3532.000000	5.311572
3530.000000	5.306235
3528.000000	5.299335
3526.000000	5.294332
3524.000000	5.291103
3522.000000	5.287996
3520.000000	5.286164
3518.000000	5.284274
3516.000000	5.281045
3514.000000	5.277283
3512.000000	5.271932
3510.000000	5.264436
3508.000000	5.258394
3506.000000	5.255368
3504.000000	5.249791
3502.000000	5.242198
3500.000000	5.237792
3498.000000	5.234015
3496.000000	5.228113
3494.000000	5.221930
3492.000000	5.215626
3490.000000	5.209278
3488.000000	5.204584
3486.000000	5.200020
3484.000000	5.194250
3482.000000	5.187401
3480.000000	5.181811
3478.000000	5.178330
3476.000000	5.174354
3474.000000	5.170400
3472.000000	5.167931
3470.000000	5.166400
3468.000000	5.164487
3466.000000	5.161302
3464.000000	5.158544
3462.000000	5.156189
3460.000000	5.153895
3458.000000	5.153214
3456.000000	5.152099
3454.000000	5.149072
3452.000000	5.146098
3450.000000	5.143719
3448.000000	5.140604
3446.000000	5.135923
3444.000000	5.132263
3442.000000	5.132065
3440.000000	5.133278
3438.000000	5.134187
3436.000000	5.136441
3434.000000	5.139827
3432.000000	5.143067
3430.000000	5.146641
3428.000000	5.150556
3426.000000	5.154877
3424.000000	5.159177
3422.000000	5.162127
3420.000000	5.165393
3418.000000	5.169741
3416.000000	5.173792
3414.000000	5.175986
3412.000000	5.176424
3410.000000	5.177140
3408.000000	5.178791
3406.000000	5.180676
3404.000000	5.182376
3402.000000	5.183104
3400.000000	5.184346
3398.000000	5.186125
3396.000000	5.187928
3394.000000	5.190462
3392.000000	5.193347
3390.000000	5.196463
3388.000000	5.199980
3386.000000	5.203017
3384.000000	5.205604
3382.000000	5.208546
3380.000000	5.211681
3378.000000	5.213304
3376.000000	5.213046
3374.000000	5.213788
3372.000000	5.215747
3370.000000	5.217059
3368.000000	5.217938
3366.000000	5.219184
3364.000000	5.221882
3362.000000	5.224791
3360.000000	5.226417
3358.000000	5.227482
3356.000000	5.228444
3354.000000	5.230099
3352.000000	5.232408
3350.000000	5.234550
3348.000000	5.237423
3346.000000	5.239465
3344.000000	5.240398
3342.000000	5.243329
3340.000000	5.245846
3338.000000	5.245709
3336.000000	5.246398
3334.000000	5.248370
3332.000000	5.250409
3330.000000	5.251774
3328.000000	5.252262
3326.000000	5.252768
3324.000000	5.255183
3322.000000	5.258514
3320.000000	5.259912
3318.000000	5.260725
3316.000000	5.262134
3314.000000	5.263382
3312.000000	5.265262
3310.000000	5.266615
3308.000000	5.267377
3306.000000	5.269440
3304.000000	5.271717
3302.000000	5.273009
3300.000000	5.274563
3298.000000	5.276203
3296.000000	5.277661
3294.000000	5.279349
3292.000000	5.280521
3290.000000	5.281560
3288.000000	5.283468
3286.000000	5.285898
3284.000000	5.287678
3282.000000	5.289131
3280.000000	5.292109
3278.000000	5.294751
3276.000000	5.296504
3274.000000	5.298878
3272.000000	5.300681
3270.000000	5.302251
3268.000000	5.304835
3266.000000	5.307439
3264.000000	5.309384
3262.000000	5.311075
3260.000000	5.313439
3258.000000	5.315963
3256.000000	5.317616
3254.000000	5.319397
3252.000000	5.322023
3250.000000	5.324654
3248.000000	5.327626
3246.000000	5.329625
3244.000000	5.331587
3242.000000	5.334216
3240.000000	5.336745
3238.000000	5.339679
3236.000000	5.342810
3234.000000	5.345657
3232.000000	5.347609
3230.000000	5.348314
3228.000000	5.350382
3226.000000	5.353823
3224.000000	5.356659
3222.000000	5.359626
3220.000000	5.362254
3218.000000	5.364780
3216.000000	5.367732
3214.000000	5.369381
3212.000000	5.371496
3210.000000	5.375684
3208.000000	5.379893
3206.000000	5.383617
3204.000000	5.387065
3202.000000	5.390645
3200.000000	5.395450
3198.000000	5.399626
3196.000000	5.403827
3194.000000	5.409579
3192.000000	5.413525
3190.000000	5.416962
3188.000000	5.421559
3186.000000	5.425105
3184.000000	5.428322
3182.000000	5.432348
3180.000000	5.436447
3178.000000	5.441621
3176.000000	5.446957
3174.000000	5.450657
3172.000000	5.454160
3170.000000	5.459667
3168.000000	5.465768
3166.000000	5.470094
3164.000000	5.473419
3162.000000	5.476987
3160.000000	5.481535
3158.000000	5.486001
3156.000000	5.490663
3154.000000	5.496102
3152.000000	5.500088
3150.000000	5.503294
3148.000000	5.506998
3146.000000	5.510836
3144.000000	5.514688
3142.000000	5.518863
3140.000000	5.523581
3138.000000	5.527907
3136.000000	5.532492
3134.000000	5.536895
3132.000000	5.539625
3130.000000	5.542148
3128.000000	5.546340
3126.000000	5.551160
3124.000000	5.554731
3122.000000	5.557282
3120.000000	5.560416
3118.000000	5.563465
3116.000000	5.566483
3114.000000	5.569524
3112.000000	5.572319
3110.000000	5.575527
3108.000000	5.579480
3106.000000	5.583169
3104.000000	5.586821
3102.000000	5.590353
3100.000000	5.594863
3098.000000	5.600708
3096.000000	5.606653
3094.000000	5.612105
3092.000000	5.616506
3090.000000	5.620283
3088.000000	5.623881
3086.000000	5.628052
3084.000000	5.632272
3082.000000	5.635953
3080.000000	5.639377
3078.000000	5.642528
3076.000000	5.645769
3074.000000	5.649234
3072.000000	5.651654
3070.000000	5.652520
3068.000000	5.653350
3066.000000	5.654892
3064.000000	5.657889
3062.000000	5.661459
3060.000000	5.664863
3058.000000	5.667877
3056.000000	5.671445
3054.000000	5.676789
3052.000000	5.682791
3050.000000	5.687530
3048.000000	5.691392
3046.000000	5.694158
3044.000000	5.696075
3042.000000	5.697889
3040.000000	5.700332
3038.000000	5.702375
3036.000000	5.703439
3034.000000	5.704559
3032.000000	5.704799
3030.000000	5.703906
3028.000000	5.702057
3026.000000	5.697352
3024.000000	5.691224
3022.000000	5.684471
3020.000000	5.678674
3018.000000	5.675979
3016.000000	5.678911
3014.000000	5.690418
3012.000000	5.708835
3010.000000	5.728963
3008.000000	5.745159
3006.000000	5.756708
3004.000000	5.766263
3002.000000	5.773544
3000.000000	5.778879
2998.000000	5.782601
2996.000000	5.784648
2994.000000	5.786358
2992.000000	5.788282
2990.000000	5.789146
2988.000000	5.788450
2986.000000	5.785710
2984.000000	5.783083
2982.000000	5.779186
2980.000000	5.771693
2978.000000	5.761691
2976.000000	5.748661
2974.000000	5.730898
2972.000000	5.706888
2970.000000	5.675677
2968.000000	5.639352
2966.000000	5.601609
2964.000000	5.569290
2962.000000	5.550499
2960.000000	5.547698
2958.000000	5.557860
2956.000000	5.574419
2954.000000	5.592149
2952.000000	5.607839
2950.000000	5.618923
2948.000000	5.624053
2946.000000	5.619950
2944.000000	5.606917
2942.000000	5.585836
2940.000000	5.557776
2938.000000	5.526317
2936.000000	5.495698
2934.000000	5.468312
2932.000000	5.442908
2930.000000	5.418050
2928.000000	5.395418
2926.000000	5.378599
2924.000000	5.374860
2922.000000	5.391096
2920.000000	5.426477
2918.000000	5.474228
2916.000000	5.526660
2914.000000	5.578169
2912.000000	5.625449
2910.000000	5.665629
2908.000000	5.697169
2906.000000	5.721805
2904.000000	5.742691
2902.000000	5.761575
2900.000000	5.778963
2898.000000	5.794796
2896.000000	5.810313
2894.000000	5.826012
2892.000000	5.840506
2890.000000	5.853157
2888.000000	5.863861
2886.000000	5.872796
2884.000000	5.879855
2882.000000	5.884980
2880.000000	5.888320
2878.000000	5.887508
2876.000000	5.882687
2874.000000	5.874800
2872.000000	5.862489
2870.000000	5.844917
2868.000000	5.820034
2866.000000	5.787275
2864.000000	5.751132
2862.000000	5.721170
2860.000000	5.705781
2858.000000	5.708686
2856.000000	5.725367
2854.000000	5.746639
2852.000000	5.770900
2850.000000	5.800028
2848.000000	5.834194
2846.000000	5.871184
2844.000000	5.907725
2842.000000	5.940296
2840.000000	5.965152
2838.000000	5.983297
2836.000000	5.998032
2834.000000	6.011278
2832.000000	6.022612
2830.000000	6.031423
2828.000000	6.040337
2826.000000	6.048520
2824.000000	6.054655
2822.000000	6.060873
2820.000000	6.067570
2818.000000	6.072773
2816.000000	6.076958
2814.000000	6.081875
2812.000000	6.087427
2810.000000	6.091549
2808.000000	6.094424
2806.000000	6.097813
2804.000000	6.100632
2802.000000	6.103848
2800.000000	6.107997
2798.000000	6.110526
2796.000000	6.111527
2794.000000	6.112938
2792.000000	6.115911
2790.000000	6.120592
2788.000000	6.125480
2786.000000	6.130237
2784.000000	6.135583
2782.000000	6.140411
2780.000000	6.144648
2778.000000	6.149622
2776.000000	6.154469
2774.000000	6.157402
2772.000000	6.160264
2770.000000	6.163422
2768.000000	6.167095
2766.000000	6.170877
2764.000000	6.174799
2762.000000	6.178823
2760.000000	6.182215
2758.000000	6.184592
2756.000000	6.186284
2754.000000	6.188499
2752.000000	6.190073
2750.000000	6.191581
2748.000000	6.194194
2746.000000	6.196063
2744.000000	6.197252
2742.000000	6.199290
2740.000000	6.201446
2738.000000	6.202313
2736.000000	6.204520
2734.000000	6.207613
2732.000000	6.209385
2730.000000	6.210441
2728.000000	6.211321
2726.000000	6.212761
2724.000000	6.213811
2722.000000	6.214747
2720.000000	6.217002
2718.000000	6.219448
2716.000000	6.221099
2714.000000	6.221710
2712.000000	6.221721
2710.000000	6.221999
2708.000000	6.222799
2706.000000	6.222942
2704.000000	6.223055
2702.000000	6.224071
2700.000000	6.225034
2698.000000	6.226751
2696.000000	6.229251
2694.000000	6.231189
2692.000000	6.233437
2690.000000	6.235430
2688.000000	6.237001
2686.000000	6.238259
2684.000000	6.239687
2682.000000	6.241637
2680.000000	6.242496
2678.000000	6.242864
2676.000000	6.243619
2674.000000	6.244195
2672.000000	6.244880
2670.000000	6.247478
2668.000000	6.249541
2666.000000	6.249118
2664.000000	6.248569
2662.000000	6.248544
2660.000000	6.248658
2658.000000	6.250410
2656.000000	6.253450
2654.000000	6.254543
2652.000000	6.255530
2650.000000	6.257886
2648.000000	6.259179
2646.000000	6.259955
2644.000000	6.260956
2642.000000	6.262565
2640.000000	6.264548
2638.000000	6.266514
2636.000000	6.268681
2634.000000	6.270370
2632.000000	6.272095
2630.000000	6.274473
2628.000000	6.276057
2626.000000	6.277775
2624.000000	6.279272
2622.000000	6.280363
2620.000000	6.281496
2618.000000	6.282664
2616.000000	6.284290
2614.000000	6.285160
2612.000000	6.286158
2610.000000	6.287067
2608.000000	6.287878
2606.000000	6.289011
2604.000000	6.289425
2602.000000	6.289103
2600.000000	6.288708
2598.000000	6.288912
2596.000000	6.289976
2594.000000	6.290370
2592.000000	6.290434
2590.000000	6.291527
2588.000000	6.293916
2586.000000	6.297940
2584.000000	6.301754
2582.000000	6.303856
2580.000000	6.307064
2578.000000	6.311031
2576.000000	6.314682
2574.000000	6.317582
2572.000000	6.319893
2570.000000	6.321267
2568.000000	6.322995
2566.000000	6.324679
2564.000000	6.326541
2562.000000	6.329040
2560.000000	6.330602
2558.000000	6.331283
2556.000000	6.332461
2554.000000	6.333563
2552.000000	6.335954
2550.000000	6.337803
2548.000000	6.338746
2546.000000	6.340663
2544.000000	6.342501
2542.000000	6.344050
2540.000000	6.345339
2538.000000	6.346635
2536.000000	6.347919
2534.000000	6.349133
2532.000000	6.350673
2530.000000	6.353439
2528.000000	6.357059
2526.000000	6.358900
2524.000000	6.359835
2522.000000	6.360416
2520.000000	6.361173
2518.000000	6.362263
2516.000000	6.362582
2514.000000	6.364055
2512.000000	6.366921
2510.000000	6.369087
2508.000000	6.370517
2506.000000	6.371924
2504.000000	6.373526
2502.000000	6.374430
2500.000000	6.375827
2498.000000	6.378275
2496.000000	6.379968
2494.000000	6.380477
2492.000000	6.381385
2490.000000	6.383814
2488.000000	6.385963
2486.000000	6.387299
2484.000000	6.388080
2482.000000	6.389022
2480.000000	6.390634
2478.000000	6.392451
2476.000000	6.393994
2474.000000	6.395397
2472.000000	6.397343
2470.000000	6.398956
2468.000000	6.399717
2466.000000	6.400837
2464.000000	6.402085
2462.000000	6.402230
2460.000000	6.401878
2458.000000	6.402406
2456.000000	6.404398
2454.000000	6.405496
2452.000000	6.406543
2450.000000	6.406661
2448.000000	6.407242
2446.000000	6.408527
2444.000000	6.410081
2442.000000	6.412120
2440.000000	6.413186
2438.000000	6.413682
2436.000000	6.414103
2434.000000	6.415119
2432.000000	6.416789
2430.000000	6.417393
2428.000000	6.417496
2426.000000	6.417717
2424.000000	6.418589
2422.000000	6.420028
2420.000000	6.421057
2418.000000	6.421913
2416.000000	6.422708
2414.000000	6.423428
2412.000000	6.424773
2410.000000	6.426158
2408.000000	6.426927
2406.000000	6.426931
2404.000000	6.427076
2402.000000	6.428257
2400.000000	6.429076
2398.000000	6.430451
2396.000000	6.431344
2394.000000	6.432192
2392.000000	6.434424
2390.000000	6.435518
2388.000000	6.435925
2386.000000	6.436533
2384.000000	6.435841
2382.000000	6.434094
2380.000000	6.431192
2378.000000	6.424771
2376.000000	6.415830
2374.000000	6.403437
2372.000000	6.387087
2370.000000	6.368559
2368.000000	6.350064
2366.000000	6.333581
2364.000000	6.322085
2362.000000	6.316361
2360.000000	6.317403
2358.000000	6.324789
2356.000000	6.339246
2354.000000	6.360770
2352.000000	6.387066
2350.000000	6.412097
2348.000000	6.420310
2346.000000	6.404870
2344.000000	6.378985
2342.000000	6.354540
2340.000000	6.336065
2338.000000	6.329987
2336.000000	6.336035
2334.000000	6.345610
2332.000000	6.353857
2330.000000	6.361799
2328.000000	6.371252
2326.000000	6.379533
2324.000000	6.387652
2322.000000	6.397964
2320.000000	6.407397
2318.000000	6.415191
2316.000000	6.421909
2314.000000	6.428268
2312.000000	6.433892
2310.000000	6.436886
2308.000000	6.439491
2306.000000	6.443193
2304.000000	6.446507
2302.000000	6.449128
2300.000000	6.451963
2298.000000	6.453723
2296.000000	6.454384
2294.000000	6.454602
2292.000000	6.454707
2290.000000	6.456413
2288.000000	6.457352
2286.000000	6.457401
2284.000000	6.458849
2282.000000	6.459470
2280.000000	6.457721
2278.000000	6.456578
2276.000000	6.456335
2274.000000	6.456049
2272.000000	6.455600
2270.000000	6.456036
2268.000000	6.456453
2266.000000	6.455825
2264.000000	6.455308
2262.000000	6.455903
2260.000000	6.456589
2258.000000	6.456143
2256.000000	6.456196
2254.000000	6.456556
2252.000000	6.457086
2250.000000	6.457929
2248.000000	6.458894
2246.000000	6.460398
2244.000000	6.461513
2242.000000	6.461435
2240.000000	6.462474
2238.000000	6.464358
2236.000000	6.466439
2234.000000	6.468217
2232.000000	6.469403
2230.000000	6.470990
2228.000000	6.472384
2226.000000	6.472990
2224.000000	6.474032
2222.000000	6.475498
2220.000000	6.476763
2218.000000	6.478020
2216.000000	6.479019
2214.000000	6.478875
2212.000000	6.479545
2210.000000	6.480490
2208.000000	6.481567
2206.000000	6.482618
2204.000000	6.483343
2202.000000	6.483977
2200.000000	6.484937
2198.000000	6.484953
2196.000000	6.484689
2194.000000	6.486261
2192.000000	6.487591
2190.000000	6.487122
2188.000000	6.488105
2186.000000	6.489410
2184.000000	6.489573
2182.000000	6.490171
2180.000000	6.491926
2178.000000	6.493010
2176.000000	6.492600
2174.000000	6.492467
2172.000000	6.492681
2170.000000	6.491781
2168.000000	6.491892
2166.000000	6.493535
2164.000000	6.494895
2162.000000	6.495488
2160.000000	6.496232
2158.000000	6.497451
2156.000000	6.498465
2154.000000	6.499135
2152.000000	6.499600
2150.000000	6.500746
2148.000000	6.502138
2146.000000	6.502913
2144.000000	6.503783
2142.000000	6.504198
2140.000000	6.504439
2138.000000	6.505408
2136.000000	6.506213
2134.000000	6.507408
2132.000000	6.507318
2130.000000	6.507239
2128.000000	6.508258
2126.000000	6.508143
2124.000000	6.508662
2122.000000	6.510646
2120.000000	6.511509
2118.000000	6.512061
2116.000000	6.512255
2114.000000	6.513087
2112.000000	6.514710
2110.000000	6.516687
2108.000000	6.518724
2106.000000	6.519584
2104.000000	6.521018
2102.000000	6.521747
2100.000000	6.522328
2098.000000	6.523529
2096.000000	6.524649
2094.000000	6.525647
2092.000000	6.526072
2090.000000	6.526214
2088.000000	6.528540
2086.000000	6.531413
2084.000000	6.534146
2082.000000	6.535481
2080.000000	6.536694
2078.000000	6.538543
2076.000000	6.540828
2074.000000	6.542992
2072.000000	6.544101
2070.000000	6.545651
2068.000000	6.547583
2066.000000	6.548500
2064.000000	6.549314
2062.000000	6.550950
2060.000000	6.552660
2058.000000	6.554389
2056.000000	6.557817
2054.000000	6.560435
2052.000000	6.561321
2050.000000	6.563070
2048.000000	6.564916
2046.000000	6.565805
2044.000000	6.567426
2042.000000	6.568556
2040.000000	6.570010
2038.000000	6.572690
2036.000000	6.575549
2034.000000	6.576564
2032.000000	6.575867
2030.000000	6.574173
2028.000000	6.574567
2026.000000	6.578251
2024.000000	6.580931
2022.000000	6.581667
2020.000000	6.582415
2018.000000	6.582127
2016.000000	6.583600
2014.000000	6.587907
2012.000000	6.590309
2010.000000	6.591408
2008.000000	6.592432
2006.000000	6.592912
2004.000000	6.592731
2002.000000	6.593638
2000.000000	6.595331
1998.000000	6.596816
1996.000000	6.596930
1994.000000	6.595586
1992.000000	6.592200
1990.000000	6.591304
1988.000000	6.594227
1986.000000	6.597577
1984.000000	6.599193
1982.000000	6.598935
1980.000000	6.599252
1978.000000	6.599067
1976.000000	6.597897
1974.000000	6.597164
1972.000000	6.597474
1970.000000	6.595254
1968.000000	6.589360
1966.000000	6.585965
1964.000000	6.587707
1962.000000	6.586976
1960.000000	6.580525
1958.000000	6.574432
1956.000000	6.578406
1954.000000	6.582187
1952.000000	6.582116
1950.000000	6.579987
1948.000000	6.577562
1946.000000	6.574776
1944.000000	6.568917
1942.000000	6.562242
1940.000000	6.565143
1938.000000	6.570034
1936.000000	6.570338
1934.000000	6.568110
1932.000000	6.565870
1930.000000	6.563872
1928.000000	6.562211
1926.000000	6.560348
1924.000000	6.554029
1922.000000	6.547378
1920.000000	6.542469
1918.000000	6.530391
1916.000000	6.532342
1914.000000	6.541905
1912.000000	6.539241
1910.000000	6.531732
1908.000000	6.527272
1906.000000	6.526598
1904.000000	6.524431
1902.000000	6.521087
1900.000000	6.518559
1898.000000	6.515854
1896.000000	6.511538
1894.000000	6.508885
1892.000000	6.506681
1890.000000	6.498060
1888.000000	6.495613
1886.000000	6.501651
1884.000000	6.503418
1882.000000	6.503489
1880.000000	6.501802
1878.000000	6.499478
1876.000000	6.498840
1874.000000	6.498347
1872.000000	6.491378
1870.000000	6.469934
1868.000000	6.456533
1866.000000	6.470134
1864.000000	6.483244
1862.000000	6.485337
1860.000000	6.483425
1858.000000	6.482499
1856.000000	6.481843
1854.000000	6.480959
1852.000000	6.477421
1850.000000	6.472176
1848.000000	6.464052
1846.000000	6.440095
1844.000000	6.406048
1842.000000	6.421766
1840.000000	6.452711
1838.000000	6.454019
1836.000000	6.449391
1834.000000	6.446225
1832.000000	6.431901
1830.000000	6.405181
1828.000000	6.402877
1826.000000	6.405937
1824.000000	6.401741
1822.000000	6.411870
1820.000000	6.415253
1818.000000	6.410111
1816.000000	6.404643
1814.000000	6.400354
1812.000000	6.388891
1810.000000	6.378678
1808.000000	6.378352
1806.000000	6.377970
1804.000000	6.368722
1802.000000	6.350208
1800.000000	6.333837
1798.000000	6.333697
1796.000000	6.333274
1794.000000	6.303995
1792.000000	6.266297
1790.000000	6.281314
1788.000000	6.308530
1786.000000	6.301593
1784.000000	6.286814
1782.000000	6.282050
1780.000000	6.273332
1778.000000	6.270122
1776.000000	6.258931
1774.000000	6.211357
1772.000000	6.160807
1770.000000	6.179665
1768.000000	6.203881
1766.000000	6.218573
1764.000000	6.221703
1762.000000	6.191983
1760.000000	6.185653
1758.000000	6.188943
1756.000000	6.177846
1754.000000	6.172955
1752.000000	6.129607
1750.000000	6.093933
1748.000000	6.107517
1746.000000	6.119783
1744.000000	6.115066
1742.000000	6.095684
1740.000000	6.067461
1738.000000	6.063107
1736.000000	6.029666
1734.000000	5.939721
1732.000000	5.964553
1730.000000	6.041578
1728.000000	6.065308
1726.000000	6.069999
1724.000000	6.064222
1722.000000	6.056290
1720.000000	6.014842
1718.000000	5.921208
1716.000000	5.899068
1714.000000	5.963527
1712.000000	6.007461
1710.000000	6.015121
1708.000000	5.995056
1706.000000	5.964849
1704.000000	5.948744
1702.000000	5.897174
1700.000000	5.805377
1698.000000	5.818911
1696.000000	5.816444
1694.000000	5.857998
1692.000000	5.947662
1690.000000	5.957510
1688.000000	5.937939
1686.000000	5.850525
1684.000000	5.761152
1682.000000	5.831765
1680.000000	5.916069
1678.000000	5.922086
1676.000000	5.879934
1674.000000	5.858264
1672.000000	5.874251
1670.000000	5.847007
1668.000000	5.846061
1666.000000	5.880541
1664.000000	5.871971
1662.000000	5.848255
1660.000000	5.863988
1658.000000	5.869907
1656.000000	5.816164
1654.000000	5.652292
1652.000000	5.583730
1650.000000	5.718772
1648.000000	5.758747
1646.000000	5.714231
1644.000000	5.748222
1642.000000	5.794593
1640.000000	5.789574
1638.000000	5.744379
1636.000000	5.660629
1634.000000	5.658681
1632.000000	5.725162
1630.000000	5.733082
1628.000000	5.704174
1626.000000	5.678850
1624.000000	5.641640
1622.000000	5.614239
1620.000000	5.605554
1618.000000	5.536562
1616.000000	5.470774
1614.000000	5.497604
1612.000000	5.501996
1610.000000	5.460567
1608.000000	5.432288
1606.000000	5.428287
1604.000000	5.439187
1602.000000	5.451837
1600.000000	5.467541
1598.000000	5.481065
1596.000000	5.489881
1594.000000	5.496254
1592.000000	5.503066
1590.000000	5.503889
1588.000000	5.502093
1586.000000	5.499071
1584.000000	5.494661
1582.000000	5.490352
1580.000000	5.484240
1578.000000	5.435435
1576.000000	5.364608
1574.000000	5.401772
1572.000000	5.450765
1570.000000	5.418567
1568.000000	5.412640
1566.000000	5.427672
1564.000000	5.416220
1562.000000	5.356511
1560.000000	5.211489
1558.000000	5.153392
1556.000000	5.253195
1554.000000	5.324526
1552.000000	5.369267
1550.000000	5.398796
1548.000000	5.414411
1546.000000	5.407421
1544.000000	5.376001
1542.000000	5.322954
1540.000000	5.266710
1538.000000	5.323319
1536.000000	5.440191
1534.000000	5.455895
1532.000000	5.464543
1530.000000	5.497662
1528.000000	5.494028
1526.000000	5.469480
1524.000000	5.447695
1522.000000	5.394402
1520.000000	5.380562
1518.000000	5.419715
1516.000000	5.425749
1514.000000	5.430154
1512.000000	5.421954
1510.000000	5.394469
1508.000000	5.302943
1506.000000	5.218035
1504.000000	5.256676
1502.000000	5.269728
1500.000000	5.143384
1498.000000	4.934103
1496.000000	4.743956
1494.000000	4.695713
1492.000000	4.752112
1490.000000	4.842186
1488.000000	4.962791
1486.000000	5.077901
1484.000000	5.159059
1482.000000	5.199728
1480.000000	5.218377
1478.000000	5.217376
1476.000000	5.190958
1474.000000	5.145807
1472.000000	5.118520
1470.000000	5.149280
1468.000000	5.163901
1466.000000	5.125528
1464.000000	5.090262
1462.000000	5.084697
1460.000000	5.037695
1458.000000	4.913221
1456.000000	4.820625
1454.000000	4.826872
1452.000000	4.818481
1450.000000	4.809465
1448.000000	4.846472
1446.000000	4.912283
1444.000000	4.957763
1442.000000	4.969389
1440.000000	4.964966
1438.000000	4.931510
1436.000000	4.907755
1434.000000	4.949332
1432.000000	4.972126
1430.000000	4.964959
1428.000000	4.966969
1426.000000	4.972052
1424.000000	4.964940
1422.000000	4.951070
1420.000000	4.905269
1418.000000	4.886864
1416.000000	4.915710
1414.000000	4.922106
1412.000000	4.904990
1410.000000	4.876036
1408.000000	4.834120
1406.000000	4.779572
1404.000000	4.740818
1402.000000	4.737730
1400.000000	4.744892
1398.000000	4.764736
1396.000000	4.789823
1394.000000	4.807432
1392.000000	4.837803
1390.000000	4.848770
1388.000000	4.825705
1386.000000	4.806295
1384.000000	4.806016
1382.000000	4.812591
1380.000000	4.820330
1378.000000	4.817626
1376.000000	4.806332
1374.000000	4.793664
1372.000000	4.794547
1370.000000	4.794727
1368.000000	4.786042
1366.000000	4.777546
1364.000000	4.760971
1362.000000	4.744010
1360.000000	4.741131
1358.000000	4.739096
1356.000000	4.730966
1354.000000	4.718423
1352.000000	4.705297
1350.000000	4.691254
1348.000000	4.677502
1346.000000	4.663877
1344.000000	4.649873
1342.000000	4.632894
1340.000000	4.612829
1338.000000	4.601699
1336.000000	4.600189
1334.000000	4.597503
1332.000000	4.590186
1330.000000	4.579424
1328.000000	4.566807
1326.000000	4.551957
1324.000000	4.535872
1322.000000	4.518696
1320.000000	4.500554
1318.000000	4.482057
1316.000000	4.464719
1314.000000	4.446054
1312.000000	4.427284
1310.000000	4.409092
1308.000000	4.389645
1306.000000	4.369590
1304.000000	4.349479
1302.000000	4.328174
1300.000000	4.307043
1298.000000	4.285650
1296.000000	4.263160
1294.000000	4.240096
1292.000000	4.216784
1290.000000	4.192873
1288.000000	4.168355
1286.000000	4.142843
1284.000000	4.117257
1282.000000	4.089938
1280.000000	4.060342
1278.000000	4.029555
1276.000000	3.996604
1274.000000	3.957646
1272.000000	3.910766
1270.000000	3.853192
1268.000000	3.778435
1266.000000	3.685066
1264.000000	3.582691
1262.000000	3.492371
1260.000000	3.441816
1258.000000	3.439129
1256.000000	3.465784
1254.000000	3.495028
1252.000000	3.509519
1250.000000	3.503834
1248.000000	3.484021
1246.000000	3.456774
1244.000000	3.425229
1242.000000	3.391748
1240.000000	3.358710
1238.000000	3.326040
1236.000000	3.294038
1234.000000	3.263352
1232.000000	3.233573
1230.000000	3.203984
1228.000000	3.174814
1226.000000	3.145338
1224.000000	3.115707
1222.000000	3.084808
1220.000000	3.052518
1218.000000	3.019307
1216.000000	2.986119
1214.000000	2.952825
1212.000000	2.919949
1210.000000	2.890227
1208.000000	2.863610
1206.000000	2.837409
1204.000000	2.810530
1202.000000	2.784378
1200.000000	2.760168
1198.000000	2.734211
1196.000000	2.706668
1194.000000	2.679591
1192.000000	2.652863
1190.000000	2.625701
1188.000000	2.597392
1186.000000	2.566145
1184.000000	2.530228
1182.000000	2.485786
1180.000000	2.445235
1178.000000	2.423899
1176.000000	2.408206
1174.000000	2.385471
1172.000000	2.359362
1170.000000	2.331367
1168.000000	2.301375
1166.000000	2.270133
1164.000000	2.240035
1162.000000	2.210782
1160.000000	2.181073
1158.000000	2.152223
1156.000000	2.125205
1154.000000	2.098454
1152.000000	2.071323
1150.000000	2.044072
1148.000000	2.017521
1146.000000	1.989862
1144.000000	1.962426
1142.000000	1.936980
1140.000000	1.916115
1138.000000	1.896815
1136.000000	1.875259
1134.000000	1.850749
1132.000000	1.826188
1130.000000	1.800468
1128.000000	1.774459
1126.000000	1.747957
1124.000000	1.720977
1122.000000	1.693408
1120.000000	1.665510
1118.000000	1.637636
1116.000000	1.609722
1114.000000	1.580769
1112.000000	1.550752
1110.000000	1.521065
1108.000000	1.492314
1106.000000	1.465457
1104.000000	1.439486
1102.000000	1.413105
1100.000000	1.387021
1098.000000	1.362031
1096.000000	1.338187
1094.000000	1.314186
1092.000000	1.291506
1090.000000	1.271434
1088.000000	1.251944
1086.000000	1.231920
1084.000000	1.212382
1082.000000	1.192457
1080.000000	1.173259
1078.000000	1.155372
1076.000000	1.138577
1074.000000	1.123897
1072.000000	1.112408
1070.000000	1.100872
1068.000000	1.088368
1066.000000	1.076032
1064.000000	1.064407
1062.000000	1.052085
1060.000000	1.038062
1058.000000	1.022394
1056.000000	1.001789
1054.000000	0.972671
1052.000000	0.944012
1050.000000	0.925019
1048.000000	0.920201
1046.000000	0.925316
1044.000000	0.928084
1042.000000	0.922984
1040.000000	0.913507
1038.000000	0.901734
1036.000000	0.888677
1034.000000	0.874346
1032.000000	0.860261
1030.000000	0.846113
1028.000000	0.831796
1026.000000	0.816474
1024.000000	0.800152
1022.000000	0.784322
1020.000000	0.770940
1018.000000	0.758056
1016.000000	0.745845
1014.000000	0.736969
1012.000000	0.729757
1010.000000	0.721146
1008.000000	0.713033
1006.000000	0.704936
1004.000000	0.696255
1002.000000	0.686204
1000.000000	0.674277
