PE IR       SUBTECH     SPECTRUM    ASCII       PEDS        4.00        
   -1
TE110A_086_150K_2MIN.ASC
20/05/14
16:17:47.00
20/05/14
16:17:47.00
Administrator
TE110A.Thursday, May 14 2020, 017.
1000.000000
#HDR
-1
-1
#GR
cm-1
A
1.0
0.0
6000.000000
-2.000000
2501
8
1.312300
1.251238
#DATA
6000.000000	1.265874
5998.000000	1.265818
5996.000000	1.265762
5994.000000	1.265823
5992.000000	1.266090
5990.000000	1.266074
5988.000000	1.265811
5986.000000	1.265488
5984.000000	1.265351
5982.000000	1.265548
5980.000000	1.265679
5978.000000	1.265528
5976.000000	1.265202
5974.000000	1.265201
5972.000000	1.265368
5970.000000	1.265398
5968.000000	1.265387
5966.000000	1.265352
5964.000000	1.265648
5962.000000	1.265700
5960.000000	1.265527
5958.000000	1.265257
5956.000000	1.265181
5954.000000	1.265268
5952.000000	1.265382
5950.000000	1.265643
5948.000000	1.265843
5946.000000	1.265898
5944.000000	1.265739
5942.000000	1.265470
5940.000000	1.265278
5938.000000	1.265329
5936.000000	1.265363
5934.000000	1.265381
5932.000000	1.265341
5930.000000	1.265286
5928.000000	1.265354
5926.000000	1.265137
5924.000000	1.265107
5922.000000	1.265423
5920.000000	1.265794
5918.000000	1.265837
5916.000000	1.265808
5914.000000	1.266097
5912.000000	1.266252
5910.000000	1.265970
5908.000000	1.265343
5906.000000	1.265037
5904.000000	1.265049
5902.000000	1.264987
5900.000000	1.264779
5898.000000	1.264633
5896.000000	1.264741
5894.000000	1.264917
5892.000000	1.265190
5890.000000	1.265457
5888.000000	1.265633
5886.000000	1.265669
5884.000000	1.265488
5882.000000	1.265559
5880.000000	1.265624
5878.000000	1.265383
5876.000000	1.264963
5874.000000	1.264658
5872.000000	1.264588
5870.000000	1.264700
5868.000000	1.264664
5866.000000	1.264742
5864.000000	1.265006
5862.000000	1.265106
5860.000000	1.265197
5858.000000	1.265366
5856.000000	1.265554
5854.000000	1.265507
5852.000000	1.265052
5850.000000	1.264521
5848.000000	1.264437
5846.000000	1.264452
5844.000000	1.264524
5842.000000	1.264363
5840.000000	1.264308
5838.000000	1.264896
5836.000000	1.265423
5834.000000	1.265481
5832.000000	1.265096
5830.000000	1.264768
5828.000000	1.264851
5826.000000	1.264924
5824.000000	1.264986
5822.000000	1.265274
5820.000000	1.265486
5818.000000	1.265433
5816.000000	1.265236
5814.000000	1.264982
5812.000000	1.265042
5810.000000	1.265160
5808.000000	1.265403
5806.000000	1.265485
5804.000000	1.265296
5802.000000	1.265107
5800.000000	1.265021
5798.000000	1.265039
5796.000000	1.265296
5794.000000	1.265390
5792.000000	1.265328
5790.000000	1.265229
5788.000000	1.265344
5786.000000	1.265655
5784.000000	1.265814
5782.000000	1.265662
5780.000000	1.265739
5778.000000	1.265835
5776.000000	1.265622
5774.000000	1.265186
5772.000000	1.264720
5770.000000	1.264600
5768.000000	1.264728
5766.000000	1.264862
5764.000000	1.265176
5762.000000	1.265523
5760.000000	1.265684
5758.000000	1.265392
5756.000000	1.264800
5754.000000	1.264634
5752.000000	1.264806
5750.000000	1.265225
5748.000000	1.265278
5746.000000	1.265112
5744.000000	1.265015
5742.000000	1.264804
5740.000000	1.264756
5738.000000	1.264836
5736.000000	1.264959
5734.000000	1.265055
5732.000000	1.264802
5730.000000	1.264548
5728.000000	1.264460
5726.000000	1.264761
5724.000000	1.265033
5722.000000	1.264956
5720.000000	1.264672
5718.000000	1.264566
5716.000000	1.264856
5714.000000	1.265112
5712.000000	1.265222
5710.000000	1.265270
5708.000000	1.265098
5706.000000	1.264869
5704.000000	1.264724
5702.000000	1.264966
5700.000000	1.265242
5698.000000	1.265263
5696.000000	1.265153
5694.000000	1.265152
5692.000000	1.265207
5690.000000	1.265086
5688.000000	1.264880
5686.000000	1.264859
5684.000000	1.265004
5682.000000	1.265270
5680.000000	1.265369
5678.000000	1.265118
5676.000000	1.264823
5674.000000	1.264700
5672.000000	1.264670
5670.000000	1.264527
5668.000000	1.264487
5666.000000	1.264759
5664.000000	1.264954
5662.000000	1.264865
5660.000000	1.264687
5658.000000	1.264790
5656.000000	1.264998
5654.000000	1.265039
5652.000000	1.265105
5650.000000	1.265043
5648.000000	1.265065
5646.000000	1.265028
5644.000000	1.264978
5642.000000	1.265105
5640.000000	1.265177
5638.000000	1.265153
5636.000000	1.265101
5634.000000	1.265137
5632.000000	1.265073
5630.000000	1.264809
5628.000000	1.264534
5626.000000	1.264539
5624.000000	1.264614
5622.000000	1.264717
5620.000000	1.264886
5618.000000	1.265074
5616.000000	1.265152
5614.000000	1.265095
5612.000000	1.264922
5610.000000	1.264801
5608.000000	1.264790
5606.000000	1.265000
5604.000000	1.265085
5602.000000	1.265057
5600.000000	1.264966
5598.000000	1.264875
5596.000000	1.264863
5594.000000	1.264770
5592.000000	1.264854
5590.000000	1.264889
5588.000000	1.264829
5586.000000	1.264832
5584.000000	1.264913
5582.000000	1.265167
5580.000000	1.265189
5578.000000	1.264960
5576.000000	1.264903
5574.000000	1.264875
5572.000000	1.265034
5570.000000	1.265214
5568.000000	1.265179
5566.000000	1.264872
5564.000000	1.264603
5562.000000	1.264792
5560.000000	1.265137
5558.000000	1.265299
5556.000000	1.265005
5554.000000	1.264674
5552.000000	1.264441
5550.000000	1.264678
5548.000000	1.265012
5546.000000	1.265093
5544.000000	1.264829
5542.000000	1.264570
5540.000000	1.264613
5538.000000	1.264844
5536.000000	1.265089
5534.000000	1.265045
5532.000000	1.264928
5530.000000	1.264969
5528.000000	1.264909
5526.000000	1.264813
5524.000000	1.264978
5522.000000	1.265294
5520.000000	1.265305
5518.000000	1.264863
5516.000000	1.264707
5514.000000	1.264886
5512.000000	1.264912
5510.000000	1.264807
5508.000000	1.264718
5506.000000	1.264764
5504.000000	1.264824
5502.000000	1.264760
5500.000000	1.264687
5498.000000	1.264419
5496.000000	1.264171
5494.000000	1.264224
5492.000000	1.264483
5490.000000	1.264629
5488.000000	1.264579
5486.000000	1.264513
5484.000000	1.264646
5482.000000	1.264665
5480.000000	1.264557
5478.000000	1.264381
5476.000000	1.264292
5474.000000	1.264322
5472.000000	1.264330
5470.000000	1.264314
5468.000000	1.264423
5466.000000	1.264566
5464.000000	1.264557
5462.000000	1.264456
5460.000000	1.264574
5458.000000	1.264787
5456.000000	1.264839
5454.000000	1.264631
5452.000000	1.264357
5450.000000	1.264101
5448.000000	1.264053
5446.000000	1.264146
5444.000000	1.264254
5442.000000	1.264359
5440.000000	1.264525
5438.000000	1.264402
5436.000000	1.264029
5434.000000	1.263862
5432.000000	1.263955
5430.000000	1.264135
5428.000000	1.264377
5426.000000	1.264837
5424.000000	1.265185
5422.000000	1.265072
5420.000000	1.264777
5418.000000	1.264403
5416.000000	1.264029
5414.000000	1.263826
5412.000000	1.264029
5410.000000	1.264690
5408.000000	1.265092
5406.000000	1.265026
5404.000000	1.264686
5402.000000	1.264522
5400.000000	1.264567
5398.000000	1.264397
5396.000000	1.264250
5394.000000	1.264387
5392.000000	1.264824
5390.000000	1.264893
5388.000000	1.264481
5386.000000	1.264134
5384.000000	1.264113
5382.000000	1.264230
5380.000000	1.264062
5378.000000	1.263929
5376.000000	1.263991
5374.000000	1.264312
5372.000000	1.264546
5370.000000	1.264405
5368.000000	1.264193
5366.000000	1.264234
5364.000000	1.264442
5362.000000	1.264658
5360.000000	1.264598
5358.000000	1.264350
5356.000000	1.263972
5354.000000	1.263871
5352.000000	1.264154
5350.000000	1.264300
5348.000000	1.263957
5346.000000	1.263765
5344.000000	1.264060
5342.000000	1.264272
5340.000000	1.264043
5338.000000	1.263990
5336.000000	1.264367
5334.000000	1.264621
5332.000000	1.264603
5330.000000	1.264533
5328.000000	1.264663
5326.000000	1.264884
5324.000000	1.265069
5322.000000	1.264908
5320.000000	1.264529
5318.000000	1.264306
5316.000000	1.264321
5314.000000	1.264418
5312.000000	1.264412
5310.000000	1.264309
5308.000000	1.264304
5306.000000	1.264469
5304.000000	1.264519
5302.000000	1.264317
5300.000000	1.264162
5298.000000	1.264420
5296.000000	1.264781
5294.000000	1.264722
5292.000000	1.264387
5290.000000	1.264312
5288.000000	1.264462
5286.000000	1.264429
5284.000000	1.264275
5282.000000	1.264373
5280.000000	1.264580
5278.000000	1.264537
5276.000000	1.264397
5274.000000	1.264447
5272.000000	1.264573
5270.000000	1.264550
5268.000000	1.264225
5266.000000	1.263859
5264.000000	1.263812
5262.000000	1.264132
5260.000000	1.264449
5258.000000	1.264371
5256.000000	1.264147
5254.000000	1.264184
5252.000000	1.264178
5250.000000	1.264036
5248.000000	1.264061
5246.000000	1.264462
5244.000000	1.264685
5242.000000	1.264518
5240.000000	1.264395
5238.000000	1.264508
5236.000000	1.264564
5234.000000	1.264459
5232.000000	1.264461
5230.000000	1.264373
5228.000000	1.264166
5226.000000	1.264248
5224.000000	1.264615
5222.000000	1.264860
5220.000000	1.264850
5218.000000	1.264928
5216.000000	1.264977
5214.000000	1.264686
5212.000000	1.264277
5210.000000	1.264026
5208.000000	1.264034
5206.000000	1.264340
5204.000000	1.264728
5202.000000	1.264892
5200.000000	1.264668
5198.000000	1.264433
5196.000000	1.264471
5194.000000	1.264684
5192.000000	1.264702
5190.000000	1.264609
5188.000000	1.264536
5186.000000	1.264579
5184.000000	1.264606
5182.000000	1.264633
5180.000000	1.264649
5178.000000	1.264694
5176.000000	1.264751
5174.000000	1.264819
5172.000000	1.264752
5170.000000	1.264665
5168.000000	1.264642
5166.000000	1.264736
5164.000000	1.264813
5162.000000	1.264762
5160.000000	1.264579
5158.000000	1.264405
5156.000000	1.264484
5154.000000	1.264671
5152.000000	1.264769
5150.000000	1.264787
5148.000000	1.264766
5146.000000	1.264857
5144.000000	1.265000
5142.000000	1.265028
5140.000000	1.264803
5138.000000	1.264671
5136.000000	1.264848
5134.000000	1.265130
5132.000000	1.265146
5130.000000	1.265054
5128.000000	1.265083
5126.000000	1.265100
5124.000000	1.265145
5122.000000	1.265158
5120.000000	1.265198
5118.000000	1.265080
5116.000000	1.264984
5114.000000	1.264991
5112.000000	1.264928
5110.000000	1.264914
5108.000000	1.264900
5106.000000	1.264954
5104.000000	1.264901
5102.000000	1.264874
5100.000000	1.264882
5098.000000	1.264903
5096.000000	1.264902
5094.000000	1.264984
5092.000000	1.265147
5090.000000	1.265314
5088.000000	1.265278
5086.000000	1.265059
5084.000000	1.264825
5082.000000	1.264873
5080.000000	1.265113
5078.000000	1.265240
5076.000000	1.265203
5074.000000	1.265013
5072.000000	1.264829
5070.000000	1.264782
5068.000000	1.264931
5066.000000	1.265106
5064.000000	1.265240
5062.000000	1.265420
5060.000000	1.265506
5058.000000	1.265399
5056.000000	1.265315
5054.000000	1.265458
5052.000000	1.265601
5050.000000	1.265516
5048.000000	1.265507
5046.000000	1.265739
5044.000000	1.265823
5042.000000	1.265520
5040.000000	1.265311
5038.000000	1.265360
5036.000000	1.265488
5034.000000	1.265534
5032.000000	1.265591
5030.000000	1.265646
5028.000000	1.265661
5026.000000	1.265503
5024.000000	1.265306
5022.000000	1.265328
5020.000000	1.265503
5018.000000	1.265606
5016.000000	1.265618
5014.000000	1.265581
5012.000000	1.265472
5010.000000	1.265421
5008.000000	1.265445
5006.000000	1.265322
5004.000000	1.265208
5002.000000	1.265260
5000.000000	1.265359
4998.000000	1.265354
4996.000000	1.265440
4994.000000	1.265698
4992.000000	1.265881
4990.000000	1.265897
4988.000000	1.265756
4986.000000	1.265709
4984.000000	1.265796
4982.000000	1.265849
4980.000000	1.265735
4978.000000	1.265712
4976.000000	1.265893
4974.000000	1.266012
4972.000000	1.265879
4970.000000	1.265715
4968.000000	1.265758
4966.000000	1.265926
4964.000000	1.266065
4962.000000	1.266100
4960.000000	1.265943
4958.000000	1.265728
4956.000000	1.265741
4954.000000	1.265870
4952.000000	1.265947
4950.000000	1.265979
4948.000000	1.266067
4946.000000	1.266118
4944.000000	1.266180
4942.000000	1.266170
4940.000000	1.266108
4938.000000	1.266126
4936.000000	1.266145
4934.000000	1.265989
4932.000000	1.265762
4930.000000	1.265791
4928.000000	1.266014
4926.000000	1.266166
4924.000000	1.266165
4922.000000	1.266003
4920.000000	1.265840
4918.000000	1.265834
4916.000000	1.265918
4914.000000	1.265987
4912.000000	1.266090
4910.000000	1.266318
4908.000000	1.266425
4906.000000	1.266273
4904.000000	1.266129
4902.000000	1.266218
4900.000000	1.266337
4898.000000	1.266346
4896.000000	1.266314
4894.000000	1.266256
4892.000000	1.266184
4890.000000	1.266197
4888.000000	1.266194
4886.000000	1.266102
4884.000000	1.266059
4882.000000	1.266119
4880.000000	1.266201
4878.000000	1.266264
4876.000000	1.266314
4874.000000	1.266347
4872.000000	1.266325
4870.000000	1.266317
4868.000000	1.266390
4866.000000	1.266450
4864.000000	1.266469
4862.000000	1.266448
4860.000000	1.266387
4858.000000	1.266373
4856.000000	1.266488
4854.000000	1.266659
4852.000000	1.266759
4850.000000	1.266747
4848.000000	1.266635
4846.000000	1.266477
4844.000000	1.266439
4842.000000	1.266561
4840.000000	1.266647
4838.000000	1.266672
4836.000000	1.266758
4834.000000	1.266837
4832.000000	1.266740
4830.000000	1.266617
4828.000000	1.266637
4826.000000	1.266716
4824.000000	1.266681
4822.000000	1.266565
4820.000000	1.266599
4818.000000	1.266764
4816.000000	1.266895
4814.000000	1.266908
4812.000000	1.266819
4810.000000	1.266765
4808.000000	1.266834
4806.000000	1.266886
4804.000000	1.266839
4802.000000	1.266818
4800.000000	1.266756
4798.000000	1.266659
4796.000000	1.266579
4794.000000	1.266564
4792.000000	1.266681
4790.000000	1.266905
4788.000000	1.266990
4786.000000	1.266896
4784.000000	1.266881
4782.000000	1.266917
4780.000000	1.266862
4778.000000	1.266811
4776.000000	1.266908
4774.000000	1.266937
4772.000000	1.266801
4770.000000	1.266762
4768.000000	1.266898
4766.000000	1.266963
4764.000000	1.266952
4762.000000	1.266910
4760.000000	1.266853
4758.000000	1.266837
4756.000000	1.266923
4754.000000	1.266996
4752.000000	1.266949
4750.000000	1.266815
4748.000000	1.266741
4746.000000	1.266820
4744.000000	1.266975
4742.000000	1.267186
4740.000000	1.267301
4738.000000	1.267212
4736.000000	1.267029
4734.000000	1.266882
4732.000000	1.266778
4730.000000	1.266754
4728.000000	1.266791
4726.000000	1.266808
4724.000000	1.266758
4722.000000	1.266778
4720.000000	1.266936
4718.000000	1.267039
4716.000000	1.266964
4714.000000	1.266983
4712.000000	1.267088
4710.000000	1.267122
4708.000000	1.267067
4706.000000	1.266933
4704.000000	1.266762
4702.000000	1.266824
4700.000000	1.266980
4698.000000	1.267011
4696.000000	1.267020
4694.000000	1.267010
4692.000000	1.266897
4690.000000	1.266823
4688.000000	1.266879
4686.000000	1.266960
4684.000000	1.267092
4682.000000	1.267185
4680.000000	1.267109
4678.000000	1.266953
4676.000000	1.266934
4674.000000	1.267071
4672.000000	1.267192
4670.000000	1.267185
4668.000000	1.267090
4666.000000	1.267091
4664.000000	1.267210
4662.000000	1.267313
4660.000000	1.267316
4658.000000	1.267301
4656.000000	1.267258
4654.000000	1.267272
4652.000000	1.267370
4650.000000	1.267424
4648.000000	1.267375
4646.000000	1.267301
4644.000000	1.267270
4642.000000	1.267326
4640.000000	1.267437
4638.000000	1.267435
4636.000000	1.267322
4634.000000	1.267209
4632.000000	1.267202
4630.000000	1.267302
4628.000000	1.267428
4626.000000	1.267475
4624.000000	1.267451
4622.000000	1.267442
4620.000000	1.267452
4618.000000	1.267477
4616.000000	1.267438
4614.000000	1.267376
4612.000000	1.267346
4610.000000	1.267367
4608.000000	1.267315
4606.000000	1.267327
4604.000000	1.267347
4602.000000	1.267304
4600.000000	1.267298
4598.000000	1.267427
4596.000000	1.267505
4594.000000	1.267528
4592.000000	1.267538
4590.000000	1.267541
4588.000000	1.267565
4586.000000	1.267584
4584.000000	1.267605
4582.000000	1.267623
4580.000000	1.267599
4578.000000	1.267608
4576.000000	1.267630
4574.000000	1.267577
4572.000000	1.267518
4570.000000	1.267557
4568.000000	1.267607
4566.000000	1.267665
4564.000000	1.267678
4562.000000	1.267610
4560.000000	1.267519
4558.000000	1.267498
4556.000000	1.267530
4554.000000	1.267569
4552.000000	1.267622
4550.000000	1.267662
4548.000000	1.267682
4546.000000	1.267689
4544.000000	1.267609
4542.000000	1.267575
4540.000000	1.267710
4538.000000	1.267858
4536.000000	1.267939
4534.000000	1.268002
4532.000000	1.267978
4530.000000	1.267937
4528.000000	1.267914
4526.000000	1.267828
4524.000000	1.267692
4522.000000	1.267567
4520.000000	1.267443
4518.000000	1.267441
4516.000000	1.267583
4514.000000	1.267714
4512.000000	1.267737
4510.000000	1.267784
4508.000000	1.267861
4506.000000	1.267836
4504.000000	1.267671
4502.000000	1.267545
4500.000000	1.267617
4498.000000	1.267752
4496.000000	1.267725
4494.000000	1.267637
4492.000000	1.267686
4490.000000	1.267773
4488.000000	1.267804
4486.000000	1.267807
4484.000000	1.267784
4482.000000	1.267765
4480.000000	1.267802
4478.000000	1.267823
4476.000000	1.267815
4474.000000	1.267897
4472.000000	1.268020
4470.000000	1.268080
4468.000000	1.268090
4466.000000	1.268072
4464.000000	1.268004
4462.000000	1.267946
4460.000000	1.267929
4458.000000	1.267900
4456.000000	1.267902
4454.000000	1.267980
4452.000000	1.267986
4450.000000	1.267868
4448.000000	1.267832
4446.000000	1.267939
4444.000000	1.268058
4442.000000	1.268152
4440.000000	1.268177
4438.000000	1.268131
4436.000000	1.268075
4434.000000	1.268117
4432.000000	1.268140
4430.000000	1.268093
4428.000000	1.268029
4426.000000	1.268003
4424.000000	1.267995
4422.000000	1.268027
4420.000000	1.268071
4418.000000	1.268170
4416.000000	1.268257
4414.000000	1.268210
4412.000000	1.268084
4410.000000	1.268008
4408.000000	1.268042
4406.000000	1.268144
4404.000000	1.268172
4402.000000	1.268088
4400.000000	1.267959
4398.000000	1.267908
4396.000000	1.267947
4394.000000	1.268014
4392.000000	1.268100
4390.000000	1.268146
4388.000000	1.268066
4386.000000	1.268012
4384.000000	1.268048
4382.000000	1.268076
4380.000000	1.268114
4378.000000	1.268205
4376.000000	1.268200
4374.000000	1.268116
4372.000000	1.268154
4370.000000	1.268248
4368.000000	1.268209
4366.000000	1.268192
4364.000000	1.268284
4362.000000	1.268307
4360.000000	1.268254
4358.000000	1.268251
4356.000000	1.268317
4354.000000	1.268333
4352.000000	1.268255
4350.000000	1.268209
4348.000000	1.268189
4346.000000	1.268120
4344.000000	1.268095
4342.000000	1.268119
4340.000000	1.268090
4338.000000	1.268034
4336.000000	1.267953
4334.000000	1.267904
4332.000000	1.267968
4330.000000	1.268093
4328.000000	1.268184
4326.000000	1.268244
4324.000000	1.268237
4322.000000	1.268134
4320.000000	1.268055
4318.000000	1.268043
4316.000000	1.268035
4314.000000	1.268035
4312.000000	1.268064
4310.000000	1.268128
4308.000000	1.268206
4306.000000	1.268238
4304.000000	1.268186
4302.000000	1.268127
4300.000000	1.268134
4298.000000	1.268195
4296.000000	1.268201
4294.000000	1.268210
4292.000000	1.268279
4290.000000	1.268294
4288.000000	1.268252
4286.000000	1.268271
4284.000000	1.268315
4282.000000	1.268309
4280.000000	1.268235
4278.000000	1.268161
4276.000000	1.268171
4274.000000	1.268195
4272.000000	1.268186
4270.000000	1.268189
4268.000000	1.268182
4266.000000	1.268139
4264.000000	1.268083
4262.000000	1.268047
4260.000000	1.268105
4258.000000	1.268245
4256.000000	1.268270
4254.000000	1.268209
4252.000000	1.268177
4250.000000	1.268129
4248.000000	1.268046
4246.000000	1.268018
4244.000000	1.268013
4242.000000	1.268050
4240.000000	1.268077
4238.000000	1.268038
4236.000000	1.267958
4234.000000	1.267886
4232.000000	1.267919
4230.000000	1.268046
4228.000000	1.268035
4226.000000	1.267913
4224.000000	1.267871
4222.000000	1.267898
4220.000000	1.267899
4218.000000	1.267939
4216.000000	1.267954
4214.000000	1.267870
4212.000000	1.267840
4210.000000	1.267892
4208.000000	1.267882
4206.000000	1.267874
4204.000000	1.267909
4202.000000	1.267976
4200.000000	1.267978
4198.000000	1.267839
4196.000000	1.267702
4194.000000	1.267719
4192.000000	1.267786
4190.000000	1.267811
4188.000000	1.267872
4186.000000	1.268001
4184.000000	1.268081
4182.000000	1.268054
4180.000000	1.267949
4178.000000	1.267870
4176.000000	1.267864
4174.000000	1.267847
4172.000000	1.267734
4170.000000	1.267658
4168.000000	1.267734
4166.000000	1.267875
4164.000000	1.267981
4162.000000	1.268011
4160.000000	1.267984
4158.000000	1.267947
4156.000000	1.267851
4154.000000	1.267780
4152.000000	1.267766
4150.000000	1.267730
4148.000000	1.267698
4146.000000	1.267696
4144.000000	1.267628
4142.000000	1.267549
4140.000000	1.267513
4138.000000	1.267467
4136.000000	1.267435
4134.000000	1.267424
4132.000000	1.267378
4130.000000	1.267427
4128.000000	1.267527
4126.000000	1.267576
4124.000000	1.267552
4122.000000	1.267498
4120.000000	1.267500
4118.000000	1.267493
4116.000000	1.267359
4114.000000	1.267261
4112.000000	1.267284
4110.000000	1.267337
4108.000000	1.267318
4106.000000	1.267329
4104.000000	1.267357
4102.000000	1.267247
4100.000000	1.267121
4098.000000	1.267128
4096.000000	1.267146
4094.000000	1.267143
4092.000000	1.267173
4090.000000	1.267249
4088.000000	1.267289
4086.000000	1.267331
4084.000000	1.267307
4082.000000	1.267153
4080.000000	1.267077
4078.000000	1.267132
4076.000000	1.267126
4074.000000	1.267083
4072.000000	1.267123
4070.000000	1.267146
4068.000000	1.267032
4066.000000	1.266941
4064.000000	1.266917
4062.000000	1.266920
4060.000000	1.266932
4058.000000	1.266901
4056.000000	1.266835
4054.000000	1.266788
4052.000000	1.266778
4050.000000	1.266842
4048.000000	1.266834
4046.000000	1.266700
4044.000000	1.266648
4042.000000	1.266694
4040.000000	1.266656
4038.000000	1.266615
4036.000000	1.266629
4034.000000	1.266651
4032.000000	1.266580
4030.000000	1.266398
4028.000000	1.266276
4026.000000	1.266314
4024.000000	1.266406
4022.000000	1.266409
4020.000000	1.266309
4018.000000	1.266280
4016.000000	1.266334
4014.000000	1.266375
4012.000000	1.266372
4010.000000	1.266316
4008.000000	1.266198
4006.000000	1.266139
4004.000000	1.266125
4002.000000	1.266126
4000.000000	1.266205
3998.000000	1.266248
3996.000000	1.266169
3994.000000	1.266103
3992.000000	1.266100
3990.000000	1.266132
3988.000000	1.266144
3986.000000	1.266119
3984.000000	1.266087
3982.000000	1.266133
3980.000000	1.266177
3978.000000	1.266118
3976.000000	1.266026
3974.000000	1.266023
3972.000000	1.266047
3970.000000	1.266001
3968.000000	1.265974
3966.000000	1.265923
3964.000000	1.265732
3962.000000	1.265659
3960.000000	1.265784
3958.000000	1.265851
3956.000000	1.265733
3954.000000	1.265540
3952.000000	1.265334
3950.000000	1.265235
3948.000000	1.265359
3946.000000	1.265301
3944.000000	1.264931
3942.000000	1.265063
3940.000000	1.265545
3938.000000	1.265557
3936.000000	1.265014
3934.000000	1.264368
3932.000000	1.264494
3930.000000	1.265131
3928.000000	1.264977
3926.000000	1.264433
3924.000000	1.264474
3922.000000	1.264473
3920.000000	1.263965
3918.000000	1.263947
3916.000000	1.264805
3914.000000	1.265424
3912.000000	1.265211
3910.000000	1.264652
3908.000000	1.263450
3906.000000	1.261623
3904.000000	1.260973
3902.000000	1.261903
3900.000000	1.263369
3898.000000	1.264982
3896.000000	1.265129
3894.000000	1.263211
3892.000000	1.262478
3890.000000	1.263544
3888.000000	1.262520
3886.000000	1.261549
3884.000000	1.263165
3882.000000	1.263607
3880.000000	1.263746
3878.000000	1.264452
3876.000000	1.263425
3874.000000	1.261861
3872.000000	1.260259
3870.000000	1.260624
3868.000000	1.262769
3866.000000	1.262661
3864.000000	1.262536
3862.000000	1.263925
3860.000000	1.264038
3858.000000	1.260283
3856.000000	1.253089
3854.000000	1.252570
3852.000000	1.261684
3850.000000	1.267311
3848.000000	1.265743
3846.000000	1.263181
3844.000000	1.261844
3842.000000	1.260387
3840.000000	1.257824
3838.000000	1.258162
3836.000000	1.261978
3834.000000	1.263452
3832.000000	1.263028
3830.000000	1.263337
3828.000000	1.263144
3826.000000	1.262322
3824.000000	1.260195
3822.000000	1.258928
3820.000000	1.260346
3818.000000	1.259683
3816.000000	1.260133
3814.000000	1.264281
3812.000000	1.264788
3810.000000	1.261386
3808.000000	1.259511
3806.000000	1.260753
3804.000000	1.259706
3802.000000	1.258305
3800.000000	1.261854
3798.000000	1.263798
3796.000000	1.263214
3794.000000	1.263753
3792.000000	1.263797
3790.000000	1.263364
3788.000000	1.263047
3786.000000	1.262823
3784.000000	1.262783
3782.000000	1.262261
3780.000000	1.262034
3778.000000	1.263066
3776.000000	1.263629
3774.000000	1.262661
3772.000000	1.261057
3770.000000	1.260874
3768.000000	1.261864
3766.000000	1.262297
3764.000000	1.262393
3762.000000	1.261506
3760.000000	1.260672
3758.000000	1.261309
3756.000000	1.260090
3754.000000	1.255464
3752.000000	1.253147
3750.000000	1.256415
3748.000000	1.257649
3746.000000	1.254025
3744.000000	1.256872
3742.000000	1.263344
3740.000000	1.261493
3738.000000	1.256825
3736.000000	1.256452
3734.000000	1.258425
3732.000000	1.260521
3730.000000	1.261870
3728.000000	1.260882
3726.000000	1.259996
3724.000000	1.260384
3722.000000	1.260775
3720.000000	1.261308
3718.000000	1.261394
3716.000000	1.259905
3714.000000	1.257190
3712.000000	1.257127
3710.000000	1.260181
3708.000000	1.262048
3706.000000	1.261580
3704.000000	1.260128
3702.000000	1.259859
3700.000000	1.261048
3698.000000	1.261406
3696.000000	1.260758
3694.000000	1.259255
3692.000000	1.256335
3690.000000	1.254493
3688.000000	1.257689
3686.000000	1.261831
3684.000000	1.261519
3682.000000	1.259669
3680.000000	1.257567
3678.000000	1.253918
3676.000000	1.253352
3674.000000	1.256521
3672.000000	1.256011
3670.000000	1.256310
3668.000000	1.260149
3666.000000	1.261003
3664.000000	1.259857
3662.000000	1.259253
3660.000000	1.258083
3658.000000	1.256302
3656.000000	1.256717
3654.000000	1.257104
3652.000000	1.253603
3650.000000	1.252021
3648.000000	1.255949
3646.000000	1.259434
3644.000000	1.259390
3642.000000	1.258461
3640.000000	1.258125
3638.000000	1.257812
3636.000000	1.257289
3634.000000	1.256368
3632.000000	1.253484
3630.000000	1.251238
3628.000000	1.254942
3626.000000	1.258827
3624.000000	1.257727
3622.000000	1.255012
3620.000000	1.253972
3618.000000	1.255404
3616.000000	1.256011
3614.000000	1.254955
3612.000000	1.254228
3610.000000	1.254123
3608.000000	1.255406
3606.000000	1.256788
3604.000000	1.256457
3602.000000	1.255755
3600.000000	1.255636
3598.000000	1.255460
3596.000000	1.255118
3594.000000	1.255328
3592.000000	1.255082
3590.000000	1.253558
3588.000000	1.253338
3586.000000	1.255164
3584.000000	1.256120
3582.000000	1.255691
3580.000000	1.255329
3578.000000	1.255283
3576.000000	1.255217
3574.000000	1.255162
3572.000000	1.254658
3570.000000	1.253319
3568.000000	1.252850
3566.000000	1.254299
3564.000000	1.255411
3562.000000	1.255284
3560.000000	1.255147
3558.000000	1.255202
3556.000000	1.255003
3554.000000	1.254746
3552.000000	1.254899
3550.000000	1.255004
3548.000000	1.254629
3546.000000	1.254592
3544.000000	1.255156
3542.000000	1.255611
3540.000000	1.255578
3538.000000	1.255354
3536.000000	1.255435
3534.000000	1.255660
3532.000000	1.255589
3530.000000	1.255355
3528.000000	1.255337
3526.000000	1.255544
3524.000000	1.255824
3522.000000	1.256198
3520.000000	1.256409
3518.000000	1.256504
3516.000000	1.256667
3514.000000	1.256723
3512.000000	1.256657
3510.000000	1.256786
3508.000000	1.257133
3506.000000	1.257232
3504.000000	1.257161
3502.000000	1.257506
3500.000000	1.257904
3498.000000	1.257945
3496.000000	1.258064
3494.000000	1.258381
3492.000000	1.258618
3490.000000	1.258725
3488.000000	1.258924
3486.000000	1.259190
3484.000000	1.259323
3482.000000	1.259562
3480.000000	1.259945
3478.000000	1.260253
3476.000000	1.260472
3474.000000	1.260811
3472.000000	1.261192
3470.000000	1.261430
3468.000000	1.261708
3466.000000	1.262112
3464.000000	1.262455
3462.000000	1.262774
3460.000000	1.263189
3458.000000	1.263619
3456.000000	1.263968
3454.000000	1.264310
3452.000000	1.264654
3450.000000	1.264851
3448.000000	1.265093
3446.000000	1.265639
3444.000000	1.266171
3442.000000	1.266608
3440.000000	1.267037
3438.000000	1.267396
3436.000000	1.267801
3434.000000	1.268259
3432.000000	1.268720
3430.000000	1.269212
3428.000000	1.269653
3426.000000	1.270022
3424.000000	1.270345
3422.000000	1.270593
3420.000000	1.270881
3418.000000	1.271209
3416.000000	1.271466
3414.000000	1.271695
3412.000000	1.271957
3410.000000	1.272268
3408.000000	1.272492
3406.000000	1.272641
3404.000000	1.272765
3402.000000	1.272886
3400.000000	1.273083
3398.000000	1.273420
3396.000000	1.273715
3394.000000	1.273776
3392.000000	1.273838
3390.000000	1.274038
3388.000000	1.274268
3386.000000	1.274468
3384.000000	1.274585
3382.000000	1.274710
3380.000000	1.274834
3378.000000	1.274881
3376.000000	1.274923
3374.000000	1.275006
3372.000000	1.275038
3370.000000	1.275024
3368.000000	1.275106
3366.000000	1.275329
3364.000000	1.275574
3362.000000	1.275670
3360.000000	1.275658
3358.000000	1.275715
3356.000000	1.275818
3354.000000	1.275932
3352.000000	1.276036
3350.000000	1.276127
3348.000000	1.276192
3346.000000	1.276209
3344.000000	1.276277
3342.000000	1.276417
3340.000000	1.276485
3338.000000	1.276472
3336.000000	1.276540
3334.000000	1.276699
3332.000000	1.276813
3330.000000	1.276891
3328.000000	1.276993
3326.000000	1.277101
3324.000000	1.277201
3322.000000	1.277308
3320.000000	1.277381
3318.000000	1.277445
3316.000000	1.277522
3314.000000	1.277636
3312.000000	1.277722
3310.000000	1.277707
3308.000000	1.277726
3306.000000	1.277805
3304.000000	1.277936
3302.000000	1.278118
3300.000000	1.278257
3298.000000	1.278337
3296.000000	1.278386
3294.000000	1.278407
3292.000000	1.278452
3290.000000	1.278603
3288.000000	1.278730
3286.000000	1.278788
3284.000000	1.278831
3282.000000	1.278782
3280.000000	1.278764
3278.000000	1.278837
3276.000000	1.278921
3274.000000	1.279056
3272.000000	1.279117
3270.000000	1.279130
3268.000000	1.279224
3266.000000	1.279250
3264.000000	1.279234
3262.000000	1.279277
3260.000000	1.279336
3258.000000	1.279421
3256.000000	1.279513
3254.000000	1.279557
3252.000000	1.279609
3250.000000	1.279710
3248.000000	1.279762
3246.000000	1.279786
3244.000000	1.279922
3242.000000	1.280049
3240.000000	1.279998
3238.000000	1.279954
3236.000000	1.280030
3234.000000	1.280090
3232.000000	1.280180
3230.000000	1.280327
3228.000000	1.280451
3226.000000	1.280559
3224.000000	1.280594
3222.000000	1.280592
3220.000000	1.280620
3218.000000	1.280655
3216.000000	1.280670
3214.000000	1.280754
3212.000000	1.280820
3210.000000	1.280805
3208.000000	1.280793
3206.000000	1.280852
3204.000000	1.280903
3202.000000	1.280919
3200.000000	1.280932
3198.000000	1.280919
3196.000000	1.280952
3194.000000	1.281083
3192.000000	1.281189
3190.000000	1.281164
3188.000000	1.281102
3186.000000	1.281138
3184.000000	1.281192
3182.000000	1.281248
3180.000000	1.281362
3178.000000	1.281468
3176.000000	1.281475
3174.000000	1.281444
3172.000000	1.281441
3170.000000	1.281483
3168.000000	1.281637
3166.000000	1.281798
3164.000000	1.281841
3162.000000	1.281841
3160.000000	1.281852
3158.000000	1.281906
3156.000000	1.282011
3154.000000	1.282022
3152.000000	1.281983
3150.000000	1.282134
3148.000000	1.282298
3146.000000	1.282352
3144.000000	1.282422
3142.000000	1.282490
3140.000000	1.282562
3138.000000	1.282690
3136.000000	1.282770
3134.000000	1.282697
3132.000000	1.282708
3130.000000	1.282809
3128.000000	1.282861
3126.000000	1.282902
3124.000000	1.282919
3122.000000	1.282926
3120.000000	1.282905
3118.000000	1.282915
3116.000000	1.283001
3114.000000	1.283081
3112.000000	1.283092
3110.000000	1.283081
3108.000000	1.283085
3106.000000	1.283168
3104.000000	1.283201
3102.000000	1.283095
3100.000000	1.283049
3098.000000	1.283088
3096.000000	1.283150
3094.000000	1.283246
3092.000000	1.283267
3090.000000	1.283217
3088.000000	1.283201
3086.000000	1.283124
3084.000000	1.282947
3082.000000	1.282800
3080.000000	1.282787
3078.000000	1.282853
3076.000000	1.282856
3074.000000	1.282783
3072.000000	1.282784
3070.000000	1.282777
3068.000000	1.282681
3066.000000	1.282668
3064.000000	1.282742
3062.000000	1.282764
3060.000000	1.282712
3058.000000	1.282646
3056.000000	1.282616
3054.000000	1.282603
3052.000000	1.282539
3050.000000	1.282512
3048.000000	1.282551
3046.000000	1.282532
3044.000000	1.282423
3042.000000	1.282335
3040.000000	1.282309
3038.000000	1.282284
3036.000000	1.282238
3034.000000	1.282211
3032.000000	1.282224
3030.000000	1.282182
3028.000000	1.282021
3026.000000	1.281910
3024.000000	1.281849
3022.000000	1.281798
3020.000000	1.281984
3018.000000	1.282367
3016.000000	1.282670
3014.000000	1.282869
3012.000000	1.282958
3010.000000	1.282840
3008.000000	1.282670
3006.000000	1.282526
3004.000000	1.282317
3002.000000	1.282173
3000.000000	1.282178
2998.000000	1.282190
2996.000000	1.282127
2994.000000	1.281992
2992.000000	1.281923
2990.000000	1.281889
2988.000000	1.281828
2986.000000	1.281752
2984.000000	1.281703
2982.000000	1.281717
2980.000000	1.281703
2978.000000	1.281578
2976.000000	1.281474
2974.000000	1.281450
2972.000000	1.281467
2970.000000	1.281519
2968.000000	1.281776
2966.000000	1.282289
2964.000000	1.282996
2962.000000	1.283768
2960.000000	1.284237
2958.000000	1.284252
2956.000000	1.283916
2954.000000	1.283418
2952.000000	1.282897
2950.000000	1.282376
2948.000000	1.281778
2946.000000	1.281200
2944.000000	1.280755
2942.000000	1.280374
2940.000000	1.280119
2938.000000	1.280065
2936.000000	1.280164
2934.000000	1.280306
2932.000000	1.280425
2930.000000	1.280518
2928.000000	1.280747
2926.000000	1.281294
2924.000000	1.282243
2922.000000	1.283231
2920.000000	1.283903
2918.000000	1.284216
2916.000000	1.284217
2914.000000	1.283893
2912.000000	1.283383
2910.000000	1.282972
2908.000000	1.282641
2906.000000	1.282409
2904.000000	1.282310
2902.000000	1.282153
2900.000000	1.282001
2898.000000	1.281914
2896.000000	1.281801
2894.000000	1.281690
2892.000000	1.281603
2890.000000	1.281521
2888.000000	1.281447
2886.000000	1.281312
2884.000000	1.281147
2882.000000	1.280984
2880.000000	1.280765
2878.000000	1.280530
2876.000000	1.280351
2874.000000	1.280108
2872.000000	1.279804
2870.000000	1.279417
2868.000000	1.278928
2866.000000	1.278663
2864.000000	1.278825
2862.000000	1.279462
2860.000000	1.280292
2858.000000	1.280888
2856.000000	1.281217
2854.000000	1.281380
2852.000000	1.281509
2850.000000	1.281803
2848.000000	1.282129
2846.000000	1.282046
2844.000000	1.281670
2842.000000	1.281313
2840.000000	1.281052
2838.000000	1.280815
2836.000000	1.280665
2834.000000	1.280565
2832.000000	1.280431
2830.000000	1.280367
2828.000000	1.280427
2826.000000	1.280404
2824.000000	1.280357
2822.000000	1.280339
2820.000000	1.280291
2818.000000	1.280129
2816.000000	1.280023
2814.000000	1.280055
2812.000000	1.280047
2810.000000	1.279990
2808.000000	1.279963
2806.000000	1.279917
2804.000000	1.279828
2802.000000	1.279739
2800.000000	1.279748
2798.000000	1.279770
2796.000000	1.279724
2794.000000	1.279700
2792.000000	1.279744
2790.000000	1.279754
2788.000000	1.279742
2786.000000	1.279739
2784.000000	1.279760
2782.000000	1.279725
2780.000000	1.279640
2778.000000	1.279596
2776.000000	1.279635
2774.000000	1.279615
2772.000000	1.279577
2770.000000	1.279564
2768.000000	1.279579
2766.000000	1.279589
2764.000000	1.279546
2762.000000	1.279509
2760.000000	1.279506
2758.000000	1.279498
2756.000000	1.279544
2754.000000	1.279554
2752.000000	1.279478
2750.000000	1.279489
2748.000000	1.279564
2746.000000	1.279532
2744.000000	1.279469
2742.000000	1.279512
2740.000000	1.279592
2738.000000	1.279642
2736.000000	1.279668
2734.000000	1.279669
2732.000000	1.279668
2730.000000	1.279661
2728.000000	1.279705
2726.000000	1.279746
2724.000000	1.279776
2722.000000	1.279773
2720.000000	1.279835
2718.000000	1.279934
2716.000000	1.280009
2714.000000	1.280078
2712.000000	1.280123
2710.000000	1.280209
2708.000000	1.280327
2706.000000	1.280370
2704.000000	1.280398
2702.000000	1.280489
2700.000000	1.280652
2698.000000	1.280772
2696.000000	1.280866
2694.000000	1.280958
2692.000000	1.280981
2690.000000	1.280996
2688.000000	1.281118
2686.000000	1.281213
2684.000000	1.281282
2682.000000	1.281383
2680.000000	1.281455
2678.000000	1.281481
2676.000000	1.281565
2674.000000	1.281681
2672.000000	1.281847
2670.000000	1.281926
2668.000000	1.281964
2666.000000	1.282061
2664.000000	1.282158
2662.000000	1.282215
2660.000000	1.282286
2658.000000	1.282383
2656.000000	1.282495
2654.000000	1.282592
2652.000000	1.282680
2650.000000	1.282792
2648.000000	1.282902
2646.000000	1.282970
2644.000000	1.283008
2642.000000	1.283003
2640.000000	1.283054
2638.000000	1.283148
2636.000000	1.283190
2634.000000	1.283198
2632.000000	1.283232
2630.000000	1.283280
2628.000000	1.283362
2626.000000	1.283413
2624.000000	1.283417
2622.000000	1.283420
2620.000000	1.283451
2618.000000	1.283439
2616.000000	1.283496
2614.000000	1.283601
2612.000000	1.283644
2610.000000	1.283625
2608.000000	1.283628
2606.000000	1.283656
2604.000000	1.283685
2602.000000	1.283775
2600.000000	1.283887
2598.000000	1.283901
2596.000000	1.283886
2594.000000	1.283897
2592.000000	1.283919
2590.000000	1.283981
2588.000000	1.284098
2586.000000	1.284193
2584.000000	1.284270
2582.000000	1.284302
2580.000000	1.284252
2578.000000	1.284212
2576.000000	1.284276
2574.000000	1.284318
2572.000000	1.284309
2570.000000	1.284296
2568.000000	1.284346
2566.000000	1.284430
2564.000000	1.284481
2562.000000	1.284464
2560.000000	1.284440
2558.000000	1.284411
2556.000000	1.284423
2554.000000	1.284441
2552.000000	1.284443
2550.000000	1.284442
2548.000000	1.284437
2546.000000	1.284420
2544.000000	1.284487
2542.000000	1.284536
2540.000000	1.284588
2538.000000	1.284579
2536.000000	1.284529
2534.000000	1.284503
2532.000000	1.284542
2530.000000	1.284578
2528.000000	1.284507
2526.000000	1.284441
2524.000000	1.284518
2522.000000	1.284567
2520.000000	1.284568
2518.000000	1.284551
2516.000000	1.284559
2514.000000	1.284611
2512.000000	1.284642
2510.000000	1.284600
2508.000000	1.284563
2506.000000	1.284552
2504.000000	1.284592
2502.000000	1.284604
2500.000000	1.284606
2498.000000	1.284605
2496.000000	1.284577
2494.000000	1.284582
2492.000000	1.284636
2490.000000	1.284640
2488.000000	1.284620
2486.000000	1.284608
2484.000000	1.284628
2482.000000	1.284637
2480.000000	1.284673
2478.000000	1.284662
2476.000000	1.284613
2474.000000	1.284619
2472.000000	1.284677
2470.000000	1.284664
2468.000000	1.284656
2466.000000	1.284668
2464.000000	1.284681
2462.000000	1.284678
2460.000000	1.284682
2458.000000	1.284715
2456.000000	1.284797
2454.000000	1.284884
2452.000000	1.284949
2450.000000	1.284942
2448.000000	1.284880
2446.000000	1.284934
2444.000000	1.284979
2442.000000	1.284880
2440.000000	1.284871
2438.000000	1.284931
2436.000000	1.284967
2434.000000	1.284964
2432.000000	1.285047
2430.000000	1.285105
2428.000000	1.285191
2426.000000	1.285294
2424.000000	1.285379
2422.000000	1.285399
2420.000000	1.285360
2418.000000	1.285389
2416.000000	1.285470
2414.000000	1.285376
2412.000000	1.285240
2410.000000	1.285209
2408.000000	1.285233
2406.000000	1.285215
2404.000000	1.285155
2402.000000	1.285191
2400.000000	1.285229
2398.000000	1.285195
2396.000000	1.285175
2394.000000	1.285187
2392.000000	1.285157
2390.000000	1.285068
2388.000000	1.285069
2386.000000	1.285007
2384.000000	1.284865
2382.000000	1.284668
2380.000000	1.284473
2378.000000	1.284294
2376.000000	1.283985
2374.000000	1.283534
2372.000000	1.283138
2370.000000	1.282844
2368.000000	1.282597
2366.000000	1.282317
2364.000000	1.282243
2362.000000	1.282451
2360.000000	1.282689
2358.000000	1.283043
2356.000000	1.283604
2354.000000	1.284168
2352.000000	1.284679
2350.000000	1.284772
2348.000000	1.284183
2346.000000	1.283500
2344.000000	1.283151
2342.000000	1.283061
2340.000000	1.283190
2338.000000	1.283185
2336.000000	1.283101
2334.000000	1.283159
2332.000000	1.283305
2330.000000	1.283464
2328.000000	1.283631
2326.000000	1.283855
2324.000000	1.284052
2322.000000	1.284183
2320.000000	1.284315
2318.000000	1.284366
2316.000000	1.284466
2314.000000	1.284546
2312.000000	1.284595
2310.000000	1.284687
2308.000000	1.284783
2306.000000	1.284813
2304.000000	1.284890
2302.000000	1.284998
2300.000000	1.284975
2298.000000	1.284843
2296.000000	1.284873
2294.000000	1.284969
2292.000000	1.284938
2290.000000	1.284971
2288.000000	1.285169
2286.000000	1.285228
2284.000000	1.285196
2282.000000	1.285162
2280.000000	1.285109
2278.000000	1.285186
2276.000000	1.285240
2274.000000	1.285119
2272.000000	1.285044
2270.000000	1.285106
2268.000000	1.285272
2266.000000	1.285319
2264.000000	1.285219
2262.000000	1.285127
2260.000000	1.285198
2258.000000	1.285305
2256.000000	1.285253
2254.000000	1.285080
2252.000000	1.285021
2250.000000	1.285060
2248.000000	1.285165
2246.000000	1.285315
2244.000000	1.285380
2242.000000	1.285233
2240.000000	1.285102
2238.000000	1.285034
2236.000000	1.284986
2234.000000	1.284805
2232.000000	1.284900
2230.000000	1.285128
2228.000000	1.285080
2226.000000	1.285048
2224.000000	1.285123
2222.000000	1.285089
2220.000000	1.284982
2218.000000	1.284909
2216.000000	1.284999
2214.000000	1.285154
2212.000000	1.285098
2210.000000	1.284929
2208.000000	1.284783
2206.000000	1.284733
2204.000000	1.284729
2202.000000	1.284668
2200.000000	1.284637
2198.000000	1.284685
2196.000000	1.284834
2194.000000	1.284926
2192.000000	1.284940
2190.000000	1.284838
2188.000000	1.284663
2186.000000	1.284548
2184.000000	1.284534
2182.000000	1.284494
2180.000000	1.284555
2178.000000	1.284643
2176.000000	1.284436
2174.000000	1.284283
2172.000000	1.284355
2170.000000	1.284307
2168.000000	1.284289
2166.000000	1.284184
2164.000000	1.284158
2162.000000	1.284096
2160.000000	1.284013
2158.000000	1.284045
2156.000000	1.284154
2154.000000	1.284100
2152.000000	1.284019
2150.000000	1.283899
2148.000000	1.283748
2146.000000	1.283737
2144.000000	1.283735
2142.000000	1.283673
2140.000000	1.283619
2138.000000	1.283528
2136.000000	1.283497
2134.000000	1.283460
2132.000000	1.283476
2130.000000	1.283467
2128.000000	1.283424
2126.000000	1.283233
2124.000000	1.283161
2122.000000	1.283228
2120.000000	1.283255
2118.000000	1.283252
2116.000000	1.283286
2114.000000	1.283191
2112.000000	1.283039
2110.000000	1.282999
2108.000000	1.283045
2106.000000	1.282971
2104.000000	1.282831
2102.000000	1.282843
2100.000000	1.282877
2098.000000	1.282760
2096.000000	1.282722
2094.000000	1.282733
2092.000000	1.282698
2090.000000	1.282599
2088.000000	1.282577
2086.000000	1.282586
2084.000000	1.282527
2082.000000	1.282375
2080.000000	1.282274
2078.000000	1.282213
2076.000000	1.282253
2074.000000	1.282262
2072.000000	1.282284
2070.000000	1.282213
2068.000000	1.282117
2066.000000	1.281980
2064.000000	1.282039
2062.000000	1.282099
2060.000000	1.282017
2058.000000	1.281931
2056.000000	1.281936
2054.000000	1.281864
2052.000000	1.281816
2050.000000	1.281755
2048.000000	1.281665
2046.000000	1.281582
2044.000000	1.281600
2042.000000	1.281562
2040.000000	1.281561
2038.000000	1.281526
2036.000000	1.281458
2034.000000	1.281398
2032.000000	1.281335
2030.000000	1.281286
2028.000000	1.281347
2026.000000	1.281301
2024.000000	1.281266
2022.000000	1.281244
2020.000000	1.281129
2018.000000	1.280972
2016.000000	1.281071
2014.000000	1.281191
2012.000000	1.281262
2010.000000	1.281226
2008.000000	1.281153
2006.000000	1.281136
2004.000000	1.281120
2002.000000	1.280993
2000.000000	1.280951
1998.000000	1.281025
1996.000000	1.281016
1994.000000	1.280696
1992.000000	1.280649
1990.000000	1.280830
1988.000000	1.280831
1986.000000	1.280879
1984.000000	1.280894
1982.000000	1.280876
1980.000000	1.280910
1978.000000	1.280808
1976.000000	1.280803
1974.000000	1.280813
1972.000000	1.280739
1970.000000	1.280557
1968.000000	1.280461
1966.000000	1.280679
1964.000000	1.280862
1962.000000	1.280754
1960.000000	1.280639
1958.000000	1.280866
1956.000000	1.280890
1954.000000	1.280694
1952.000000	1.280668
1950.000000	1.280719
1948.000000	1.280731
1946.000000	1.280566
1944.000000	1.280273
1942.000000	1.280436
1940.000000	1.280854
1938.000000	1.280848
1936.000000	1.280889
1934.000000	1.280901
1932.000000	1.280952
1930.000000	1.280929
1928.000000	1.280862
1926.000000	1.280687
1924.000000	1.280504
1922.000000	1.280597
1920.000000	1.280216
1918.000000	1.280154
1916.000000	1.281086
1914.000000	1.281185
1912.000000	1.280967
1910.000000	1.280841
1908.000000	1.281078
1906.000000	1.281114
1904.000000	1.281104
1902.000000	1.281151
1900.000000	1.281208
1898.000000	1.281095
1896.000000	1.281091
1894.000000	1.281141
1892.000000	1.280879
1890.000000	1.280616
1888.000000	1.281167
1886.000000	1.281274
1884.000000	1.281311
1882.000000	1.281342
1880.000000	1.281314
1878.000000	1.281247
1876.000000	1.281311
1874.000000	1.281143
1872.000000	1.280457
1870.000000	1.279574
1868.000000	1.280377
1866.000000	1.281251
1864.000000	1.281343
1862.000000	1.281240
1860.000000	1.281334
1858.000000	1.281303
1856.000000	1.281372
1854.000000	1.281353
1852.000000	1.281383
1850.000000	1.281156
1848.000000	1.280550
1846.000000	1.278759
1844.000000	1.279116
1842.000000	1.281327
1840.000000	1.281457
1838.000000	1.281185
1836.000000	1.281334
1834.000000	1.281206
1832.000000	1.280133
1830.000000	1.279872
1828.000000	1.280699
1826.000000	1.280400
1824.000000	1.281102
1822.000000	1.281644
1820.000000	1.281527
1818.000000	1.281432
1816.000000	1.281621
1814.000000	1.281432
1812.000000	1.281060
1810.000000	1.281195
1808.000000	1.281624
1806.000000	1.281580
1804.000000	1.281113
1802.000000	1.280461
1800.000000	1.280757
1798.000000	1.281215
1796.000000	1.280652
1794.000000	1.278670
1792.000000	1.279196
1790.000000	1.281384
1788.000000	1.281546
1786.000000	1.280778
1784.000000	1.281017
1782.000000	1.280979
1780.000000	1.281154
1778.000000	1.281354
1776.000000	1.280137
1774.000000	1.277460
1772.000000	1.278219
1770.000000	1.280402
1768.000000	1.280814
1766.000000	1.281781
1764.000000	1.280628
1762.000000	1.280162
1760.000000	1.281359
1758.000000	1.280911
1756.000000	1.281195
1754.000000	1.280517
1752.000000	1.278418
1750.000000	1.279598
1748.000000	1.281092
1746.000000	1.281443
1744.000000	1.281168
1742.000000	1.280298
1740.000000	1.280088
1738.000000	1.280695
1736.000000	1.276296
1734.000000	1.275757
1732.000000	1.281327
1730.000000	1.282529
1728.000000	1.282750
1726.000000	1.282711
1724.000000	1.282619
1722.000000	1.282031
1720.000000	1.278308
1718.000000	1.275723
1716.000000	1.279617
1714.000000	1.282285
1712.000000	1.282979
1710.000000	1.282473
1708.000000	1.281591
1706.000000	1.280822
1704.000000	1.280598
1702.000000	1.275445
1700.000000	1.275660
1698.000000	1.277749
1696.000000	1.277549
1694.000000	1.283138
1692.000000	1.284003
1690.000000	1.282911
1688.000000	1.280852
1686.000000	1.275205
1684.000000	1.277304
1682.000000	1.283388
1680.000000	1.283716
1678.000000	1.282157
1676.000000	1.280166
1674.000000	1.282078
1672.000000	1.281694
1670.000000	1.280709
1668.000000	1.283276
1666.000000	1.284060
1664.000000	1.282360
1662.000000	1.283230
1660.000000	1.284561
1658.000000	1.283704
1656.000000	1.277732
1654.000000	1.270816
1652.000000	1.278316
1650.000000	1.283868
1648.000000	1.279996
1646.000000	1.281046
1644.000000	1.284896
1642.000000	1.285205
1640.000000	1.284077
1638.000000	1.280700
1636.000000	1.279035
1634.000000	1.283818
1632.000000	1.285738
1630.000000	1.284508
1628.000000	1.284201
1626.000000	1.283798
1624.000000	1.282791
1622.000000	1.284082
1620.000000	1.283381
1618.000000	1.279711
1616.000000	1.281893
1614.000000	1.285542
1612.000000	1.285059
1610.000000	1.285068
1608.000000	1.285692
1606.000000	1.286465
1604.000000	1.286631
1602.000000	1.286791
1600.000000	1.286882
1598.000000	1.286954
1596.000000	1.286764
1594.000000	1.286801
1592.000000	1.286746
1590.000000	1.286689
1588.000000	1.286638
1586.000000	1.286588
1584.000000	1.286600
1582.000000	1.286733
1580.000000	1.285733
1578.000000	1.281526
1576.000000	1.281720
1574.000000	1.286532
1572.000000	1.285062
1570.000000	1.283691
1568.000000	1.285549
1566.000000	1.285978
1564.000000	1.284974
1562.000000	1.279447
1560.000000	1.273245
1558.000000	1.278904
1556.000000	1.283988
1554.000000	1.284933
1552.000000	1.286224
1550.000000	1.286251
1548.000000	1.285924
1546.000000	1.284047
1544.000000	1.281578
1542.000000	1.277655
1540.000000	1.277481
1538.000000	1.284288
1536.000000	1.285773
1534.000000	1.283991
1532.000000	1.285883
1530.000000	1.286016
1528.000000	1.284350
1526.000000	1.283464
1524.000000	1.281701
1522.000000	1.279499
1520.000000	1.282473
1518.000000	1.283779
1516.000000	1.284391
1514.000000	1.285180
1512.000000	1.284710
1510.000000	1.282161
1508.000000	1.276819
1506.000000	1.278786
1504.000000	1.284716
1502.000000	1.283888
1500.000000	1.280260
1498.000000	1.277696
1496.000000	1.280603
1494.000000	1.286339
1492.000000	1.287495
1490.000000	1.287370
1488.000000	1.288048
1486.000000	1.288366
1484.000000	1.288079
1482.000000	1.287225
1480.000000	1.286878
1478.000000	1.285596
1476.000000	1.283755
1474.000000	1.281694
1472.000000	1.283301
1470.000000	1.286166
1468.000000	1.285648
1466.000000	1.284026
1464.000000	1.284944
1462.000000	1.285527
1460.000000	1.281854
1458.000000	1.277306
1456.000000	1.280487
1454.000000	1.284872
1452.000000	1.285567
1450.000000	1.286508
1448.000000	1.287129
1446.000000	1.287523
1444.000000	1.286962
1442.000000	1.286560
1440.000000	1.285271
1438.000000	1.282574
1436.000000	1.283826
1434.000000	1.286342
1432.000000	1.285639
1430.000000	1.285498
1428.000000	1.286063
1426.000000	1.285874
1424.000000	1.285460
1422.000000	1.284157
1420.000000	1.281991
1418.000000	1.284194
1416.000000	1.286005
1414.000000	1.286109
1412.000000	1.285733
1410.000000	1.285466
1408.000000	1.284968
1406.000000	1.284715
1404.000000	1.285604
1402.000000	1.286261
1400.000000	1.285706
1398.000000	1.285884
1396.000000	1.285158
1394.000000	1.285502
1392.000000	1.286311
1390.000000	1.285249
1388.000000	1.284196
1386.000000	1.285282
1384.000000	1.286286
1382.000000	1.286453
1380.000000	1.286126
1378.000000	1.285742
1376.000000	1.285113
1374.000000	1.285081
1372.000000	1.285623
1370.000000	1.285552
1368.000000	1.285412
1366.000000	1.285213
1364.000000	1.284543
1362.000000	1.284652
1360.000000	1.285315
1358.000000	1.285514
1356.000000	1.285308
1354.000000	1.285218
1352.000000	1.285189
1350.000000	1.285138
1348.000000	1.285104
1346.000000	1.285134
1344.000000	1.285017
1342.000000	1.284570
1340.000000	1.284158
1338.000000	1.284493
1336.000000	1.284851
1334.000000	1.284893
1332.000000	1.284793
1330.000000	1.284774
1328.000000	1.284664
1326.000000	1.284554
1324.000000	1.284438
1322.000000	1.284306
1320.000000	1.284060
1318.000000	1.284092
1316.000000	1.284095
1314.000000	1.284045
1312.000000	1.284015
1310.000000	1.283926
1308.000000	1.283707
1306.000000	1.283672
1304.000000	1.283686
1302.000000	1.283669
1300.000000	1.283564
1298.000000	1.283434
1296.000000	1.283269
1294.000000	1.283317
1292.000000	1.283275
1290.000000	1.283234
1288.000000	1.283267
1286.000000	1.283293
1284.000000	1.283134
1282.000000	1.283063
1280.000000	1.282992
1278.000000	1.282969
1276.000000	1.283028
1274.000000	1.283104
1272.000000	1.282983
1270.000000	1.283181
1268.000000	1.283755
1266.000000	1.284974
1264.000000	1.286973
1262.000000	1.289749
1260.000000	1.292123
1258.000000	1.292912
1256.000000	1.291770
1254.000000	1.289805
1252.000000	1.288056
1250.000000	1.286908
1248.000000	1.286242
1246.000000	1.286106
1244.000000	1.286192
1242.000000	1.286448
1240.000000	1.286715
1238.000000	1.287031
1236.000000	1.287294
1234.000000	1.287564
1232.000000	1.287840
1230.000000	1.288148
1228.000000	1.288358
1226.000000	1.288566
1224.000000	1.288706
1222.000000	1.288981
1220.000000	1.289279
1218.000000	1.289626
1216.000000	1.289941
1214.000000	1.290226
1212.000000	1.290482
1210.000000	1.290920
1208.000000	1.291214
1206.000000	1.291484
1204.000000	1.291840
1202.000000	1.292136
1200.000000	1.292272
1198.000000	1.292576
1196.000000	1.292893
1194.000000	1.293174
1192.000000	1.293460
1190.000000	1.293872
1188.000000	1.294267
1186.000000	1.294610
1184.000000	1.294433
1182.000000	1.294455
1180.000000	1.295571
1178.000000	1.296534
1176.000000	1.296689
1174.000000	1.296876
1172.000000	1.297123
1170.000000	1.297557
1168.000000	1.297997
1166.000000	1.298325
1164.000000	1.298571
1162.000000	1.298881
1160.000000	1.299279
1158.000000	1.299892
1156.000000	1.300331
1154.000000	1.300646
1152.000000	1.301093
1150.000000	1.301637
1148.000000	1.301812
1146.000000	1.302062
1144.000000	1.302348
1142.000000	1.302845
1140.000000	1.303424
1138.000000	1.303682
1136.000000	1.303511
1134.000000	1.303704
1132.000000	1.304147
1130.000000	1.304483
1128.000000	1.304743
1126.000000	1.304996
1124.000000	1.305185
1122.000000	1.305395
1120.000000	1.305476
1118.000000	1.305769
1116.000000	1.306118
1114.000000	1.306598
1112.000000	1.307141
1110.000000	1.307863
1108.000000	1.308359
1106.000000	1.308842
1104.000000	1.309279
1102.000000	1.309689
1100.000000	1.310233
1098.000000	1.310943
1096.000000	1.311495
1094.000000	1.311998
1092.000000	1.312300
1090.000000	1.312048
1088.000000	1.311780
1086.000000	1.311698
1084.000000	1.311399
1082.000000	1.311254
1080.000000	1.311023
1078.000000	1.311311
1076.000000	1.311468
1074.000000	1.311067
1072.000000	1.310648
1070.000000	1.310372
1068.000000	1.309947
1066.000000	1.309369
1064.000000	1.308418
1062.000000	1.307949
1060.000000	1.308102
1058.000000	1.307663
1056.000000	1.306232
1054.000000	1.305118
1052.000000	1.305092
1050.000000	1.306132
1048.000000	1.306839
1046.000000	1.306424
1044.000000	1.305108
1042.000000	1.304174
1040.000000	1.303390
1038.000000	1.303041
1036.000000	1.302731
1034.000000	1.302169
1032.000000	1.301659
1030.000000	1.301202
1028.000000	1.300991
1026.000000	1.300787
1024.000000	1.299729
1022.000000	1.299170
1020.000000	1.298848
1018.000000	1.298846
1016.000000	1.298623
1014.000000	1.297690
1012.000000	1.296117
1010.000000	1.293962
1008.000000	1.291882
1006.000000	1.289867
1004.000000	1.288441
1002.000000	1.287517
1000.000000	1.286150
