PE IR       SUBTECH     SPECTRUM    ASCII       PEDS        4.00        
   -1
TE108B1_006.ASC
20/02/21
14:38:45.00
20/02/21
14:38:45.00
Administrator
Sample 006 By Administrator Date Friday, February 21 2020
1500.000000
#HDR
-1
-1
#GR
cm-1
EGY
1.0
0.0
4000.000000
-1.000000
2501
8
9.668065
6.868639
#DATA
4000.000000	6.868639
3999.000000	6.872690
3998.000000	6.876393
3997.000000	6.879519
3996.000000	6.882260
3995.000000	6.885014
3994.000000	6.888036
3993.000000	6.891282
3992.000000	6.894549
3991.000000	6.897710
3990.000000	6.900865
3989.000000	6.904288
3988.000000	6.908195
3987.000000	6.912521
3986.000000	6.916939
3985.000000	6.921124
3984.000000	6.925017
3983.000000	6.928793
3982.000000	6.932624
3981.000000	6.936469
3980.000000	6.940131
3979.000000	6.943478
3978.000000	6.946621
3977.000000	6.949856
3976.000000	6.953436
3975.000000	6.957395
3974.000000	6.961578
3973.000000	6.965794
3972.000000	6.969925
3971.000000	6.973963
3970.000000	6.978010
3969.000000	6.982226
3968.000000	6.986668
3967.000000	6.991154
3966.000000	6.995340
3965.000000	6.999006
3964.000000	7.002272
3963.000000	7.005554
3962.000000	7.009306
3961.000000	7.013767
3960.000000	7.018837
3959.000000	7.024138
3958.000000	7.029233
3957.000000	7.033873
3956.000000	7.038088
3955.000000	7.042072
3954.000000	7.046002
3953.000000	7.049970
3952.000000	7.054058
3951.000000	7.058394
3950.000000	7.063070
3949.000000	7.067984
3948.000000	7.072808
3947.000000	7.077203
3946.000000	7.081154
3945.000000	7.085079
3944.000000	7.089581
3943.000000	7.095059
3942.000000	7.101492
3941.000000	7.108474
3940.000000	7.115396
3939.000000	7.121678
3938.000000	7.126980
3937.000000	7.131291
3936.000000	7.134852
3935.000000	7.138029
3934.000000	7.141290
3933.000000	7.145200
3932.000000	7.150217
3931.000000	7.156342
3930.000000	7.163006
3929.000000	7.169439
3928.000000	7.175239
3927.000000	7.180598
3926.000000	7.185993
3925.000000	7.191650
3924.000000	7.197330
3923.000000	7.202568
3922.000000	7.207093
3921.000000	7.211040
3920.000000	7.214859
3919.000000	7.219125
3918.000000	7.224354
3917.000000	7.230825
3916.000000	7.238423
3915.000000	7.246680
3914.000000	7.255003
3913.000000	7.262923
3912.000000	7.270138
3911.000000	7.276373
3910.000000	7.281255
3909.000000	7.284357
3908.000000	7.285450
3907.000000	7.284852
3906.000000	7.283573
3905.000000	7.283004
3904.000000	7.284294
3903.000000	7.287931
3902.000000	7.293844
3901.000000	7.301736
3900.000000	7.311225
3899.000000	7.321704
3898.000000	7.332193
3897.000000	7.341429
3896.000000	7.348276
3895.000000	7.352402
3894.000000	7.354759
3893.000000	7.357218
3892.000000	7.361267
3891.000000	7.366774
3890.000000	7.372104
3889.000000	7.375675
3888.000000	7.377528
3887.000000	7.379347
3886.000000	7.382909
3885.000000	7.388534
3884.000000	7.395093
3883.000000	7.401439
3882.000000	7.407632
3881.000000	7.414560
3880.000000	7.422504
3879.000000	7.430443
3878.000000	7.436906
3877.000000	7.441254
3876.000000	7.443788
3875.000000	7.444835
3874.000000	7.444316
3873.000000	7.442520
3872.000000	7.440969
3871.000000	7.441896
3870.000000	7.446560
3869.000000	7.454093
3868.000000	7.462241
3867.000000	7.469260
3866.000000	7.475122
3865.000000	7.480972
3864.000000	7.487768
3863.000000	7.495624
3862.000000	7.504088
3861.000000	7.512205
3860.000000	7.517882
3859.000000	7.517738
3858.000000	7.508916
3857.000000	7.492052
3856.000000	7.472699
3855.000000	7.459218
3854.000000	7.458307
3853.000000	7.471373
3852.000000	7.494282
3851.000000	7.520248
3850.000000	7.543463
3849.000000	7.560997
3848.000000	7.572481
3847.000000	7.578947
3846.000000	7.581987
3845.000000	7.583211
3844.000000	7.583491
3843.000000	7.582432
3842.000000	7.579033
3841.000000	7.573344
3840.000000	7.567542
3839.000000	7.565024
3838.000000	7.568204
3837.000000	7.576896
3836.000000	7.588677
3835.000000	7.600710
3834.000000	7.611439
3833.000000	7.620827
3832.000000	7.629349
3831.000000	7.637034
3830.000000	7.643535
3829.000000	7.648809
3828.000000	7.653181
3827.000000	7.656518
3826.000000	7.657771
3825.000000	7.655989
3824.000000	7.651990
3823.000000	7.648515
3822.000000	7.648083
3821.000000	7.650563
3820.000000	7.653349
3819.000000	7.654320
3818.000000	7.654456
3817.000000	7.657178
3816.000000	7.665077
3815.000000	7.677590
3814.000000	7.691632
3813.000000	7.703742
3812.000000	7.711417
3811.000000	7.713480
3810.000000	7.710661
3809.000000	7.706018
3808.000000	7.703470
3807.000000	7.704629
3806.000000	7.707200
3805.000000	7.707326
3804.000000	7.703868
3803.000000	7.699980
3802.000000	7.700263
3801.000000	7.706635
3800.000000	7.717106
3799.000000	7.728172
3798.000000	7.737747
3797.000000	7.745854
3796.000000	7.753178
3795.000000	7.759762
3794.000000	7.765179
3793.000000	7.769391
3792.000000	7.772928
3791.000000	7.776230
3790.000000	7.779144
3789.000000	7.781223
3788.000000	7.782384
3787.000000	7.783117
3786.000000	7.784072
3785.000000	7.785459
3784.000000	7.786876
3783.000000	7.787774
3782.000000	7.788174
3781.000000	7.788868
3780.000000	7.790759
3779.000000	7.793969
3778.000000	7.797774
3777.000000	7.801333
3776.000000	7.804214
3775.000000	7.806096
3774.000000	7.806454
3773.000000	7.805045
3772.000000	7.802690
3771.000000	7.801073
3770.000000	7.801546
3769.000000	7.804234
3768.000000	7.808345
3767.000000	7.812993
3766.000000	7.817482
3765.000000	7.821074
3764.000000	7.823009
3763.000000	7.823054
3762.000000	7.821942
3761.000000	7.821110
3760.000000	7.821766
3759.000000	7.823876
3758.000000	7.825772
3757.000000	7.824826
3756.000000	7.818969
3755.000000	7.808069
3754.000000	7.794315
3753.000000	7.781522
3752.000000	7.773606
3751.000000	7.772629
3750.000000	7.777071
3749.000000	7.782060
3748.000000	7.782663
3747.000000	7.778265
3746.000000	7.773873
3745.000000	7.776324
3744.000000	7.788577
3743.000000	7.807277
3742.000000	7.825416
3741.000000	7.837131
3740.000000	7.840489
3739.000000	7.837365
3738.000000	7.831580
3737.000000	7.826748
3736.000000	7.824857
3735.000000	7.826131
3734.000000	7.830110
3733.000000	7.836537
3732.000000	7.844966
3731.000000	7.853886
3730.000000	7.861052
3729.000000	7.865081
3728.000000	7.866455
3727.000000	7.866745
3726.000000	7.867106
3725.000000	7.867759
3724.000000	7.868572
3723.000000	7.869602
3722.000000	7.870981
3721.000000	7.872688
3720.000000	7.874585
3719.000000	7.876385
3718.000000	7.877263
3717.000000	7.875810
3716.000000	7.870935
3715.000000	7.862941
3714.000000	7.853256
3713.000000	7.842795
3712.000000	7.831118
3711.000000	7.817998
3710.000000	7.805784
3709.000000	7.799079
3708.000000	7.801026
3707.000000	7.809911
3706.000000	7.819996
3705.000000	7.826065
3704.000000	7.826974
3703.000000	7.825102
3702.000000	7.823158
3701.000000	7.821991
3700.000000	7.820912
3699.000000	7.819055
3698.000000	7.816009
3697.000000	7.811580
3696.000000	7.805479
3695.000000	7.797252
3694.000000	7.786307
3693.000000	7.772200
3692.000000	7.755444
3691.000000	7.738348
3690.000000	7.724655
3689.000000	7.717496
3688.000000	7.717202
3687.000000	7.720894
3686.000000	7.724331
3685.000000	7.724360
3684.000000	7.720014
3683.000000	7.711903
3682.000000	7.700799
3681.000000	7.686591
3680.000000	7.668470
3679.000000	7.646428
3678.000000	7.622811
3677.000000	7.601855
3676.000000	7.586728
3675.000000	7.576821
3674.000000	7.568379
3673.000000	7.558207
3672.000000	7.546595
3671.000000	7.536515
3670.000000	7.530384
3669.000000	7.527980
3668.000000	7.527015
3667.000000	7.525001
3666.000000	7.520496
3665.000000	7.513275
3664.000000	7.503913
3663.000000	7.493123
3662.000000	7.481136
3661.000000	7.467593
3660.000000	7.452216
3659.000000	7.435685
3658.000000	7.419708
3657.000000	7.405946
3656.000000	7.394559
3655.000000	7.383703
3654.000000	7.370639
3653.000000	7.353755
3652.000000	7.334011
3651.000000	7.314683
3650.000000	7.299586
3649.000000	7.291035
3648.000000	7.288759
3647.000000	7.290291
3646.000000	7.292430
3645.000000	7.292844
3644.000000	7.290761
3643.000000	7.286554
3642.000000	7.280860
3641.000000	7.274110
3640.000000	7.266597
3639.000000	7.258624
3638.000000	7.250479
3637.000000	7.242378
3636.000000	7.234369
3635.000000	7.225997
3634.000000	7.216045
3633.000000	7.203166
3632.000000	7.187466
3631.000000	7.171537
3630.000000	7.159452
3629.000000	7.154128
3628.000000	7.155440
3627.000000	7.160591
3626.000000	7.165992
3625.000000	7.168780
3624.000000	7.167379
3623.000000	7.161643
3622.000000	7.153004
3621.000000	7.144053
3620.000000	7.137277
3619.000000	7.133664
3618.000000	7.132375
3617.000000	7.131654
3616.000000	7.130117
3615.000000	7.127348
3614.000000	7.123598
3613.000000	7.119169
3612.000000	7.114268
3611.000000	7.109390
3610.000000	7.105584
3609.000000	7.103979
3608.000000	7.104949
3607.000000	7.107715
3606.000000	7.110692
3605.000000	7.112091
3604.000000	7.110474
3603.000000	7.105376
3602.000000	7.097905
3601.000000	7.090511
3600.000000	7.085584
3599.000000	7.083865
3598.000000	7.084265
3597.000000	7.085158
3596.000000	7.085734
3595.000000	7.086100
3594.000000	7.086390
3593.000000	7.086099
3592.000000	7.084351
3591.000000	7.080770
3590.000000	7.076066
3589.000000	7.071802
3588.000000	7.069501
3587.000000	7.069833
3586.000000	7.072391
3585.000000	7.076092
3584.000000	7.079701
3583.000000	7.082246
3582.000000	7.083265
3581.000000	7.082886
3580.000000	7.081656
3579.000000	7.080203
3578.000000	7.079008
3577.000000	7.078357
3576.000000	7.078317
3575.000000	7.078670
3574.000000	7.078907
3573.000000	7.078371
3572.000000	7.076480
3571.000000	7.073020
3570.000000	7.068454
3569.000000	7.063961
3568.000000	7.060947
3567.000000	7.060232
3566.000000	7.061643
3565.000000	7.064315
3564.000000	7.067314
3563.000000	7.069970
3562.000000	7.071878
3561.000000	7.072880
3560.000000	7.073122
3559.000000	7.072960
3558.000000	7.072672
3557.000000	7.072259
3556.000000	7.071556
3555.000000	7.070556
3554.000000	7.069539
3553.000000	7.068838
3552.000000	7.068435
3551.000000	7.067851
3550.000000	7.066537
3549.000000	7.064443
3548.000000	7.062177
3547.000000	7.060612
3546.000000	7.060299
3545.000000	7.061179
3544.000000	7.062680
3543.000000	7.064035
3542.000000	7.064610
3541.000000	7.064179
3540.000000	7.062997
3539.000000	7.061605
3538.000000	7.060489
3537.000000	7.059825
3536.000000	7.059455
3535.000000	7.059058
3534.000000	7.058358
3533.000000	7.057227
3532.000000	7.055674
3531.000000	7.053794
3530.000000	7.051737
3529.000000	7.049701
3528.000000	7.047821
3527.000000	7.046056
3526.000000	7.044194
3525.000000	7.042048
3524.000000	7.039633
3523.000000	7.037173
3522.000000	7.034911
3521.000000	7.032915
3520.000000	7.031019
3519.000000	7.028968
3518.000000	7.026665
3517.000000	7.024297
3516.000000	7.022186
3515.000000	7.020451
3514.000000	7.018865
3513.000000	7.017059
3512.000000	7.014890
3511.000000	7.012533
3510.000000	7.010222
3509.000000	7.007935
3508.000000	7.005398
3507.000000	7.002378
3506.000000	6.998947
3505.000000	6.995418
3504.000000	6.992074
3503.000000	6.988998
3502.000000	6.986125
3501.000000	6.983337
3500.000000	6.980493
3499.000000	6.977474
3498.000000	6.974300
3497.000000	6.971166
3496.000000	6.968249
3495.000000	6.965487
3494.000000	6.962622
3493.000000	6.959464
3492.000000	6.956047
3491.000000	6.952535
3490.000000	6.949091
3489.000000	6.945866
3488.000000	6.942975
3487.000000	6.940405
3486.000000	6.937951
3485.000000	6.935363
3484.000000	6.932572
3483.000000	6.929773
3482.000000	6.927275
3481.000000	6.925264
3480.000000	6.923666
3479.000000	6.922236
3478.000000	6.920800
3477.000000	6.919414
3476.000000	6.918238
3475.000000	6.917257
3474.000000	6.916210
3473.000000	6.914852
3472.000000	6.913292
3471.000000	6.911967
3470.000000	6.911259
3469.000000	6.911116
3468.000000	6.911043
3467.000000	6.910498
3466.000000	6.909352
3465.000000	6.908045
3464.000000	6.907261
3463.000000	6.907420
3462.000000	6.908368
3461.000000	6.909512
3460.000000	6.910221
3459.000000	6.910170
3458.000000	6.909416
3457.000000	6.908257
3456.000000	6.907036
3455.000000	6.906027
3454.000000	6.905386
3453.000000	6.905076
3452.000000	6.904806
3451.000000	6.904158
3450.000000	6.902919
3449.000000	6.901310
3448.000000	6.899823
3447.000000	6.898804
3446.000000	6.898275
3445.000000	6.898132
3444.000000	6.898359
3443.000000	6.898956
3442.000000	6.899756
3441.000000	6.900540
3440.000000	6.901370
3439.000000	6.902672
3438.000000	6.904858
3437.000000	6.907897
3436.000000	6.911336
3435.000000	6.914742
3434.000000	6.918025
3433.000000	6.921319
3432.000000	6.924697
3431.000000	6.928133
3430.000000	6.931666
3429.000000	6.935426
3428.000000	6.939415
3427.000000	6.943381
3426.000000	6.947024
3425.000000	6.950274
3424.000000	6.953281
3423.000000	6.956193
3422.000000	6.959050
3421.000000	6.961890
3420.000000	6.964789
3419.000000	6.967741
3418.000000	6.970582
3417.000000	6.973127
3416.000000	6.975367
3415.000000	6.977437
3414.000000	6.979391
3413.000000	6.981075
3412.000000	6.982284
3411.000000	6.983044
3410.000000	6.983680
3409.000000	6.984544
3408.000000	6.985668
3407.000000	6.986759
3406.000000	6.987563
3405.000000	6.988187
3404.000000	6.988985
3403.000000	6.990156
3402.000000	6.991551
3401.000000	6.992881
3400.000000	6.994072
3399.000000	6.995417
3398.000000	6.997382
3397.000000	7.000235
3396.000000	7.003727
3395.000000	7.007152
3394.000000	7.009851
3393.000000	7.011745
3392.000000	7.013356
3391.000000	7.015242
3390.000000	7.017465
3389.000000	7.019639
3388.000000	7.021414
3387.000000	7.022816
3386.000000	7.024123
3385.000000	7.025542
3384.000000	7.027052
3383.000000	7.028512
3382.000000	7.029845
3381.000000	7.031110
3380.000000	7.032451
3379.000000	7.033990
3378.000000	7.035765
3377.000000	7.037709
3376.000000	7.039688
3375.000000	7.041585
3374.000000	7.043376
3373.000000	7.045117
3372.000000	7.046831
3371.000000	7.048450
3370.000000	7.049886
3369.000000	7.051145
3368.000000	7.052314
3367.000000	7.053468
3366.000000	7.054656
3365.000000	7.055955
3364.000000	7.057426
3363.000000	7.058981
3362.000000	7.060385
3361.000000	7.061508
3360.000000	7.062542
3359.000000	7.063885
3358.000000	7.065742
3357.000000	7.067866
3356.000000	7.069729
3355.000000	7.070983
3354.000000	7.071783
3353.000000	7.072653
3352.000000	7.074025
3351.000000	7.075916
3350.000000	7.078022
3349.000000	7.080058
3348.000000	7.081919
3347.000000	7.083583
3346.000000	7.085006
3345.000000	7.086202
3344.000000	7.087351
3343.000000	7.088702
3342.000000	7.090368
3341.000000	7.092223
3340.000000	7.094000
3339.000000	7.095485
3338.000000	7.096657
3337.000000	7.097684
3336.000000	7.098786
3335.000000	7.100069
3334.000000	7.101512
3333.000000	7.103107
3332.000000	7.104930
3331.000000	7.106975
3330.000000	7.108982
3329.000000	7.110557
3328.000000	7.111547
3327.000000	7.112250
3326.000000	7.113174
3325.000000	7.114587
3324.000000	7.116304
3323.000000	7.117906
3322.000000	7.119096
3321.000000	7.119871
3320.000000	7.120441
3319.000000	7.121097
3318.000000	7.122095
3317.000000	7.123515
3316.000000	7.125164
3315.000000	7.126675
3314.000000	7.127818
3313.000000	7.128704
3312.000000	7.129620
3311.000000	7.130704
3310.000000	7.131843
3309.000000	7.132885
3308.000000	7.133822
3307.000000	7.134732
3306.000000	7.135651
3305.000000	7.136575
3304.000000	7.137503
3303.000000	7.138386
3302.000000	7.139107
3301.000000	7.139634
3300.000000	7.140182
3299.000000	7.141090
3298.000000	7.142481
3297.000000	7.144091
3296.000000	7.145500
3295.000000	7.146500
3294.000000	7.147240
3293.000000	7.148035
3292.000000	7.149085
3291.000000	7.150358
3290.000000	7.151683
3289.000000	7.152936
3288.000000	7.154114
3287.000000	7.155274
3286.000000	7.156426
3285.000000	7.157537
3284.000000	7.158600
3283.000000	7.159677
3282.000000	7.160830
3281.000000	7.162043
3280.000000	7.163228
3279.000000	7.164295
3278.000000	7.165228
3277.000000	7.166097
3276.000000	7.167011
3275.000000	7.168048
3274.000000	7.169253
3273.000000	7.170660
3272.000000	7.172286
3271.000000	7.174045
3270.000000	7.175735
3269.000000	7.177176
3268.000000	7.178401
3267.000000	7.179618
3266.000000	7.180959
3265.000000	7.182326
3264.000000	7.183544
3263.000000	7.184625
3262.000000	7.185770
3261.000000	7.187128
3260.000000	7.188658
3259.000000	7.190276
3258.000000	7.192028
3257.000000	7.194034
3256.000000	7.196269
3255.000000	7.198493
3254.000000	7.200398
3253.000000	7.201834
3252.000000	7.202913
3251.000000	7.203936
3250.000000	7.205198
3249.000000	7.206779
3248.000000	7.208524
3247.000000	7.210241
3246.000000	7.211910
3245.000000	7.213624
3244.000000	7.215355
3243.000000	7.216891
3242.000000	7.218093
3241.000000	7.219130
3240.000000	7.220379
3239.000000	7.222084
3238.000000	7.224174
3237.000000	7.226361
3236.000000	7.228345
3235.000000	7.229938
3234.000000	7.231127
3233.000000	7.232108
3232.000000	7.233208
3231.000000	7.234673
3230.000000	7.236452
3229.000000	7.238210
3228.000000	7.239589
3227.000000	7.240535
3226.000000	7.241381
3225.000000	7.242577
3224.000000	7.244297
3223.000000	7.246272
3222.000000	7.248058
3221.000000	7.249483
3220.000000	7.250825
3219.000000	7.252520
3218.000000	7.254724
3217.000000	7.257186
3216.000000	7.259511
3215.000000	7.261475
3214.000000	7.263071
3213.000000	7.264369
3212.000000	7.265483
3211.000000	7.266688
3210.000000	7.268399
3209.000000	7.270896
3208.000000	7.274065
3207.000000	7.277498
3206.000000	7.280825
3205.000000	7.283902
3204.000000	7.286737
3203.000000	7.289384
3202.000000	7.291948
3201.000000	7.294561
3200.000000	7.297287
3199.000000	7.300118
3198.000000	7.303105
3197.000000	7.306376
3196.000000	7.309921
3195.000000	7.313494
3194.000000	7.316863
3193.000000	7.320117
3192.000000	7.323559
3191.000000	7.327304
3190.000000	7.331138
3189.000000	7.334780
3188.000000	7.338131
3187.000000	7.341196
3186.000000	7.343970
3185.000000	7.346522
3184.000000	7.349108
3183.000000	7.352012
3182.000000	7.355274
3181.000000	7.358664
3180.000000	7.361925
3179.000000	7.364985
3178.000000	7.367945
3177.000000	7.370925
3176.000000	7.373977
3175.000000	7.377088
3174.000000	7.380247
3173.000000	7.383486
3172.000000	7.386839
3171.000000	7.390276
3170.000000	7.393710
3169.000000	7.397094
3168.000000	7.400461
3167.000000	7.403831
3166.000000	7.407136
3165.000000	7.410315
3164.000000	7.413432
3163.000000	7.416628
3162.000000	7.419920
3161.000000	7.423156
3160.000000	7.426200
3159.000000	7.429122
3158.000000	7.432173
3157.000000	7.435578
3156.000000	7.439352
3155.000000	7.443290
3154.000000	7.447090
3153.000000	7.450535
3152.000000	7.453591
3151.000000	7.456409
3150.000000	7.459234
3149.000000	7.462315
3148.000000	7.465807
3147.000000	7.469670
3146.000000	7.473650
3145.000000	7.477419
3144.000000	7.480787
3143.000000	7.483808
3142.000000	7.486664
3141.000000	7.489494
3140.000000	7.492313
3139.000000	7.495067
3138.000000	7.497732
3137.000000	7.500381
3136.000000	7.503153
3135.000000	7.506157
3134.000000	7.509393
3133.000000	7.512754
3132.000000	7.516102
3131.000000	7.519298
3130.000000	7.522201
3129.000000	7.524730
3128.000000	7.526985
3127.000000	7.529260
3126.000000	7.531829
3125.000000	7.534687
3124.000000	7.537528
3123.000000	7.540011
3122.000000	7.542049
3121.000000	7.543852
3120.000000	7.545707
3119.000000	7.547741
3118.000000	7.549877
3117.000000	7.551996
3116.000000	7.554110
3115.000000	7.556377
3114.000000	7.558943
3113.000000	7.561801
3112.000000	7.564794
3111.000000	7.567755
3110.000000	7.570639
3109.000000	7.573517
3108.000000	7.576450
3107.000000	7.579364
3106.000000	7.582086
3105.000000	7.584562
3104.000000	7.587017
3103.000000	7.589836
3102.000000	7.593223
3101.000000	7.596985
3100.000000	7.600691
3099.000000	7.604023
3098.000000	7.606976
3097.000000	7.609802
3096.000000	7.612814
3095.000000	7.616209
3094.000000	7.619943
3093.000000	7.623751
3092.000000	7.627341
3091.000000	7.630645
3090.000000	7.633846
3089.000000	7.637165
3088.000000	7.640629
3087.000000	7.644097
3086.000000	7.647440
3085.000000	7.650651
3084.000000	7.653817
3083.000000	7.657028
3082.000000	7.660333
3081.000000	7.663718
3080.000000	7.667109
3079.000000	7.670395
3078.000000	7.673480
3077.000000	7.676322
3076.000000	7.678916
3075.000000	7.681260
3074.000000	7.683323
3073.000000	7.685073
3072.000000	7.686541
3071.000000	7.687846
3070.000000	7.689138
3069.000000	7.690555
3068.000000	7.692246
3067.000000	7.694390
3066.000000	7.697088
3065.000000	7.700221
3064.000000	7.703531
3063.000000	7.706881
3062.000000	7.710361
3061.000000	7.714062
3060.000000	7.717828
3059.000000	7.721390
3058.000000	7.724731
3057.000000	7.728188
3056.000000	7.732100
3055.000000	7.736421
3054.000000	7.740723
3053.000000	7.744565
3052.000000	7.747860
3051.000000	7.750930
3050.000000	7.754246
3049.000000	7.758063
3048.000000	7.762253
3047.000000	7.766461
3046.000000	7.770412
3045.000000	7.774014
3044.000000	7.777220
3043.000000	7.779910
3042.000000	7.781991
3041.000000	7.783579
3040.000000	7.784981
3039.000000	7.786511
3038.000000	7.788318
3037.000000	7.790383
3036.000000	7.792592
3035.000000	7.794780
3034.000000	7.796752
3033.000000	7.798312
3032.000000	7.799299
3031.000000	7.799612
3030.000000	7.799214
3029.000000	7.798105
3028.000000	7.796276
3027.000000	7.793707
3026.000000	7.790436
3025.000000	7.786653
3024.000000	7.782741
3023.000000	7.779207
3022.000000	7.776543
3021.000000	7.775147
3020.000000	7.775370
3019.000000	7.777621
3018.000000	7.782302
3017.000000	7.789552
3016.000000	7.799078
3015.000000	7.810350
3014.000000	7.822940
3013.000000	7.836593
3012.000000	7.850941
3011.000000	7.865304
3010.000000	7.878901
3009.000000	7.891210
3008.000000	7.902097
3007.000000	7.911671
3006.000000	7.920134
3005.000000	7.927711
3004.000000	7.934586
3003.000000	7.940883
3002.000000	7.946758
3001.000000	7.952468
3000.000000	7.958225
2999.000000	7.963972
2998.000000	7.969425
2997.000000	7.974349
2996.000000	7.978744
2995.000000	7.982735
2994.000000	7.986407
2993.000000	7.989781
2992.000000	7.992864
2991.000000	7.995658
2990.000000	7.998195
2989.000000	8.000601
2988.000000	8.003034
2987.000000	8.005453
2986.000000	8.007568
2985.000000	8.009117
2984.000000	8.010146
2983.000000	8.010873
2982.000000	8.011296
2981.000000	8.011106
2980.000000	8.010024
2979.000000	8.008073
2978.000000	8.005395
2977.000000	8.001910
2976.000000	7.997278
2975.000000	7.991170
2974.000000	7.983449
2973.000000	7.974085
2972.000000	7.963072
2971.000000	7.950571
2970.000000	7.937082
2969.000000	7.923320
2968.000000	7.909868
2967.000000	7.897082
2966.000000	7.885395
2965.000000	7.875582
2964.000000	7.868466
2963.000000	7.864343
2962.000000	7.862835
2961.000000	7.863416
2960.000000	7.865917
2959.000000	7.870385
2958.000000	7.876542
2957.000000	7.883661
2956.000000	7.890997
2955.000000	7.898206
2954.000000	7.905246
2953.000000	7.912011
2952.000000	7.918172
2951.000000	7.923267
2950.000000	7.926811
2949.000000	7.928340
2948.000000	7.927487
2947.000000	7.924060
2946.000000	7.917982
2945.000000	7.909162
2944.000000	7.897533
2943.000000	7.883230
2942.000000	7.866691
2941.000000	7.848541
2940.000000	7.829464
2939.000000	7.810194
2938.000000	7.791508
2937.000000	7.774041
2936.000000	7.758049
2935.000000	7.743351
2934.000000	7.729509
2933.000000	7.716030
2932.000000	7.702502
2931.000000	7.688748
2930.000000	7.675062
2929.000000	7.662357
2928.000000	7.652027
2927.000000	7.645639
2926.000000	7.644626
2925.000000	7.650073
2924.000000	7.662542
2923.000000	7.681973
2922.000000	7.707783
2921.000000	7.739087
2920.000000	7.774828
2919.000000	7.813809
2918.000000	7.854795
2917.000000	7.896717
2916.000000	7.938702
2915.000000	7.979870
2914.000000	8.019207
2913.000000	8.055795
2912.000000	8.089154
2911.000000	8.119282
2910.000000	8.146388
2909.000000	8.170734
2908.000000	8.192706
2907.000000	8.212854
2906.000000	8.231692
2905.000000	8.249505
2904.000000	8.266378
2903.000000	8.282370
2902.000000	8.297627
2901.000000	8.312347
2900.000000	8.326700
2899.000000	8.340733
2898.000000	8.354341
2897.000000	8.367395
2896.000000	8.379944
2895.000000	8.392239
2894.000000	8.404545
2893.000000	8.416958
2892.000000	8.429418
2891.000000	8.441790
2890.000000	8.453846
2889.000000	8.465261
2888.000000	8.475747
2887.000000	8.485185
2886.000000	8.493567
2885.000000	8.500873
2884.000000	8.507127
2883.000000	8.512532
2882.000000	8.517382
2881.000000	8.521729
2880.000000	8.525205
2879.000000	8.527241
2878.000000	8.527483
2877.000000	8.525997
2876.000000	8.523124
2875.000000	8.519126
2874.000000	8.513884
2873.000000	8.506882
2872.000000	8.497476
2871.000000	8.485219
2870.000000	8.469981
2869.000000	8.451866
2868.000000	8.431196
2867.000000	8.408664
2866.000000	8.385484
2865.000000	8.363289
2864.000000	8.343833
2863.000000	8.328683
2862.000000	8.319037
2861.000000	8.315593
2860.000000	8.318408
2859.000000	8.326806
2858.000000	8.339512
2857.000000	8.355057
2856.000000	8.372268
2855.000000	8.390549
2854.000000	8.409857
2853.000000	8.430509
2852.000000	8.452990
2851.000000	8.477765
2850.000000	8.505030
2849.000000	8.534490
2848.000000	8.565315
2847.000000	8.596329
2846.000000	8.626342
2845.000000	8.654437
2844.000000	8.680077
2843.000000	8.703044
2842.000000	8.723352
2841.000000	8.741272
2840.000000	8.757335
2839.000000	8.772135
2838.000000	8.785996
2837.000000	8.798900
2836.000000	8.810746
2835.000000	8.821603
2834.000000	8.831668
2833.000000	8.841089
2832.000000	8.849979
2831.000000	8.858500
2830.000000	8.866771
2829.000000	8.874695
2828.000000	8.882090
2827.000000	8.889019
2826.000000	8.895844
2825.000000	8.902842
2824.000000	8.909856
2823.000000	8.916450
2822.000000	8.922378
2821.000000	8.927831
2820.000000	8.933219
2819.000000	8.938795
2818.000000	8.944490
2817.000000	8.950089
2816.000000	8.955475
2815.000000	8.960672
2814.000000	8.965700
2813.000000	8.970478
2812.000000	8.974933
2811.000000	8.979136
2810.000000	8.983243
2809.000000	8.987337
2808.000000	8.991387
2807.000000	8.995354
2806.000000	8.999251
2805.000000	9.003134
2804.000000	9.007086
2803.000000	9.011172
2802.000000	9.015318
2801.000000	9.019273
2800.000000	9.022807
2799.000000	9.025946
2798.000000	9.028927
2797.000000	9.031920
2796.000000	9.034925
2795.000000	9.037929
2794.000000	9.041014
2793.000000	9.044275
2792.000000	9.047745
2791.000000	9.051486
2790.000000	9.055629
2789.000000	9.060251
2788.000000	9.065288
2787.000000	9.070601
2786.000000	9.076046
2785.000000	9.081407
2784.000000	9.086397
2783.000000	9.090873
2782.000000	9.094980
2781.000000	9.099018
2780.000000	9.103172
2779.000000	9.107434
2778.000000	9.111696
2777.000000	9.115846
2776.000000	9.119828
2775.000000	9.123702
2774.000000	9.127617
2773.000000	9.131644
2772.000000	9.135684
2771.000000	9.139569
2770.000000	9.143200
2769.000000	9.146527
2768.000000	9.149509
2767.000000	9.152222
2766.000000	9.154924
2765.000000	9.157846
2764.000000	9.160938
2763.000000	9.163967
2762.000000	9.166854
2761.000000	9.169784
2760.000000	9.172946
2759.000000	9.176280
2758.000000	9.179528
2757.000000	9.182462
2756.000000	9.185036
2755.000000	9.187422
2754.000000	9.189890
2753.000000	9.192571
2752.000000	9.195286
2751.000000	9.197708
2750.000000	9.199723
2749.000000	9.201584
2748.000000	9.203644
2747.000000	9.206030
2746.000000	9.208574
2745.000000	9.210989
2744.000000	9.213072
2743.000000	9.214836
2742.000000	9.216555
2741.000000	9.218583
2740.000000	9.221032
2739.000000	9.223613
2738.000000	9.225891
2737.000000	9.227699
2736.000000	9.229274
2735.000000	9.230996
2734.000000	9.233045
2733.000000	9.235293
2732.000000	9.237444
2731.000000	9.239260
2730.000000	9.240733
2729.000000	9.242088
2728.000000	9.243603
2727.000000	9.245386
2726.000000	9.247302
2725.000000	9.249151
2724.000000	9.250862
2723.000000	9.252502
2722.000000	9.254136
2721.000000	9.255731
2720.000000	9.257234
2719.000000	9.258669
2718.000000	9.260100
2717.000000	9.261518
2716.000000	9.262821
2715.000000	9.263957
2714.000000	9.265042
2713.000000	9.266300
2712.000000	9.267836
2711.000000	9.269455
2710.000000	9.270749
2709.000000	9.271434
2708.000000	9.271685
2707.000000	9.272102
2706.000000	9.273229
2705.000000	9.275065
2704.000000	9.277073
2703.000000	9.278725
2702.000000	9.279978
2701.000000	9.281176
2700.000000	9.282609
2699.000000	9.284281
2698.000000	9.286074
2697.000000	9.287950
2696.000000	9.289903
2695.000000	9.291843
2694.000000	9.293637
2693.000000	9.295218
2692.000000	9.296574
2691.000000	9.297684
2690.000000	9.298602
2689.000000	9.299559
2688.000000	9.300812
2687.000000	9.302320
2686.000000	9.303696
2685.000000	9.304604
2684.000000	9.305148
2683.000000	9.305762
2682.000000	9.306730
2681.000000	9.307924
2680.000000	9.309014
2679.000000	9.309840
2678.000000	9.310508
2677.000000	9.311205
2676.000000	9.311999
2675.000000	9.312822
2674.000000	9.313569
2673.000000	9.314205
2672.000000	9.314762
2671.000000	9.315255
2670.000000	9.315612
2669.000000	9.315725
2668.000000	9.315585
2667.000000	9.315364
2666.000000	9.315337
2665.000000	9.315707
2664.000000	9.316449
2663.000000	9.317269
2662.000000	9.317740
2661.000000	9.317603
2660.000000	9.317016
2659.000000	9.316454
2658.000000	9.316308
2657.000000	9.316568
2656.000000	9.316908
2655.000000	9.317039
2654.000000	9.316922
2653.000000	9.316743
2652.000000	9.316749
2651.000000	9.317111
2650.000000	9.317808
2649.000000	9.318598
2648.000000	9.319164
2647.000000	9.319367
2646.000000	9.319343
2645.000000	9.319321
2644.000000	9.319365
2643.000000	9.319309
2642.000000	9.318955
2641.000000	9.318319
2640.000000	9.317695
2639.000000	9.317436
2638.000000	9.317679
2637.000000	9.318220
2636.000000	9.318653
2635.000000	9.318629
2634.000000	9.318075
2633.000000	9.317254
2632.000000	9.316591
2631.000000	9.316345
2630.000000	9.316384
2629.000000	9.316329
2628.000000	9.315937
2627.000000	9.315275
2626.000000	9.314529
2625.000000	9.313774
2624.000000	9.312989
2623.000000	9.312189
2622.000000	9.311401
2621.000000	9.310579
2620.000000	9.309673
2619.000000	9.308775
2618.000000	9.308045
2617.000000	9.307479
2616.000000	9.306844
2615.000000	9.305907
2614.000000	9.304662
2613.000000	9.303306
2612.000000	9.302048
2611.000000	9.300917
2610.000000	9.299718
2609.000000	9.298214
2608.000000	9.296423
2607.000000	9.294718
2606.000000	9.293522
2605.000000	9.292865
2604.000000	9.292316
2603.000000	9.291348
2602.000000	9.289701
2601.000000	9.287448
2600.000000	9.284879
2599.000000	9.282392
2598.000000	9.280331
2597.000000	9.278746
2596.000000	9.277343
2595.000000	9.275750
2594.000000	9.273865
2593.000000	9.271925
2592.000000	9.270258
2591.000000	9.269014
2590.000000	9.268104
2589.000000	9.267363
2588.000000	9.266750
2587.000000	9.266409
2586.000000	9.266516
2585.000000	9.267068
2584.000000	9.267829
2583.000000	9.268501
2582.000000	9.268919
2581.000000	9.269108
2580.000000	9.269196
2579.000000	9.269283
2578.000000	9.269351
2577.000000	9.269278
2576.000000	9.268991
2575.000000	9.268563
2574.000000	9.268129
2573.000000	9.267702
2572.000000	9.267163
2571.000000	9.266443
2570.000000	9.265655
2569.000000	9.264975
2568.000000	9.264417
2567.000000	9.263773
2566.000000	9.262786
2565.000000	9.261369
2564.000000	9.259663
2563.000000	9.257882
2562.000000	9.256110
2561.000000	9.254271
2560.000000	9.252256
2559.000000	9.250038
2558.000000	9.247631
2557.000000	9.245096
2556.000000	9.242634
2555.000000	9.240571
2554.000000	9.239069
2553.000000	9.237871
2552.000000	9.236485
2551.000000	9.234655
2550.000000	9.232557
2549.000000	9.230531
2548.000000	9.228750
2547.000000	9.227160
2546.000000	9.225588
2545.000000	9.223809
2544.000000	9.221641
2543.000000	9.219105
2542.000000	9.216447
2541.000000	9.213929
2540.000000	9.211618
2539.000000	9.209432
2538.000000	9.207327
2537.000000	9.205332
2536.000000	9.203413
2535.000000	9.201407
2534.000000	9.199129
2533.000000	9.196539
2532.000000	9.193788
2531.000000	9.191099
2530.000000	9.188595
2529.000000	9.186228
2528.000000	9.183875
2527.000000	9.181480
2526.000000	9.179107
2525.000000	9.176849
2524.000000	9.174724
2523.000000	9.172634
2522.000000	9.170452
2521.000000	9.168142
2520.000000	9.165801
2519.000000	9.163516
2518.000000	9.161191
2517.000000	9.158617
2516.000000	9.155784
2515.000000	9.153008
2514.000000	9.150636
2513.000000	9.148682
2512.000000	9.146853
2511.000000	9.144891
2510.000000	9.142746
2509.000000	9.140480
2508.000000	9.138143
2507.000000	9.135788
2506.000000	9.133480
2505.000000	9.131258
2504.000000	9.129156
2503.000000	9.127234
2502.000000	9.125493
2501.000000	9.123780
2500.000000	9.121942
2499.000000	9.120075
2498.000000	9.118447
2497.000000	9.117126
2496.000000	9.115877
2495.000000	9.114505
2494.000000	9.113181
2493.000000	9.112256
2492.000000	9.111805
2491.000000	9.111514
2490.000000	9.111029
2489.000000	9.110342
2488.000000	9.109751
2487.000000	9.109448
2486.000000	9.109201
2485.000000	9.108539
2484.000000	9.107284
2483.000000	9.105822
2482.000000	9.104757
2481.000000	9.104351
2480.000000	9.104345
2479.000000	9.104252
2478.000000	9.103748
2477.000000	9.102896
2476.000000	9.102132
2475.000000	9.101971
2474.000000	9.102529
2473.000000	9.103363
2472.000000	9.103924
2471.000000	9.104118
2470.000000	9.104228
2469.000000	9.104391
2468.000000	9.104435
2467.000000	9.104262
2466.000000	9.104077
2465.000000	9.104106
2464.000000	9.104303
2463.000000	9.104474
2462.000000	9.104517
2461.000000	9.104429
2460.000000	9.104247
2459.000000	9.104136
2458.000000	9.104359
2457.000000	9.105026
2456.000000	9.105967
2455.000000	9.106955
2454.000000	9.107947
2453.000000	9.108997
2452.000000	9.110126
2451.000000	9.111398
2450.000000	9.112970
2449.000000	9.114879
2448.000000	9.116885
2447.000000	9.118714
2446.000000	9.120372
2445.000000	9.122052
2444.000000	9.123835
2443.000000	9.125666
2442.000000	9.127570
2441.000000	9.129664
2440.000000	9.131949
2439.000000	9.134228
2438.000000	9.136263
2437.000000	9.137974
2436.000000	9.139496
2435.000000	9.141129
2434.000000	9.143160
2433.000000	9.145632
2432.000000	9.148310
2431.000000	9.150937
2430.000000	9.153466
2429.000000	9.155967
2428.000000	9.158418
2427.000000	9.160724
2426.000000	9.162890
2425.000000	9.165035
2424.000000	9.167266
2423.000000	9.169632
2422.000000	9.172193
2421.000000	9.174996
2420.000000	9.177981
2419.000000	9.180966
2418.000000	9.183722
2417.000000	9.186068
2416.000000	9.188003
2415.000000	9.189813
2414.000000	9.191913
2413.000000	9.194444
2412.000000	9.197078
2411.000000	9.199376
2410.000000	9.201291
2409.000000	9.203230
2408.000000	9.205627
2407.000000	9.208553
2406.000000	9.211711
2405.000000	9.214691
2404.000000	9.217285
2403.000000	9.219653
2402.000000	9.222159
2401.000000	9.224960
2400.000000	9.227792
2399.000000	9.230249
2398.000000	9.232245
2397.000000	9.234088
2396.000000	9.236136
2395.000000	9.238495
2394.000000	9.241020
2393.000000	9.243473
2392.000000	9.245670
2391.000000	9.247563
2390.000000	9.249190
2389.000000	9.250522
2388.000000	9.251365
2387.000000	9.251419
2386.000000	9.250246
2385.000000	9.246986
2384.000000	9.240208
2383.000000	9.228373
2382.000000	9.210789
2381.000000	9.188244
2380.000000	9.162829
2379.000000	9.137091
2378.000000	9.113037
2377.000000	9.091467
2376.000000	9.071957
2375.000000	9.053516
2374.000000	9.035429
2373.000000	9.017595
2372.000000	9.000226
2371.000000	8.983423
2370.000000	8.967127
2369.000000	8.951378
2368.000000	8.936468
2367.000000	8.922760
2366.000000	8.910409
2365.000000	8.899281
2364.000000	8.889158
2363.000000	8.880006
2362.000000	8.872081
2361.000000	8.865904
2360.000000	8.862237
2359.000000	8.861925
2358.000000	8.865436
2357.000000	8.872387
2356.000000	8.881691
2355.000000	8.892347
2354.000000	8.904038
2353.000000	8.916757
2352.000000	8.929824
2351.000000	8.941382
2350.000000	8.948943
2349.000000	8.950489
2348.000000	8.945307
2347.000000	8.934069
2346.000000	8.918242
2345.000000	8.899361
2344.000000	8.878789
2343.000000	8.858162
2342.000000	8.839869
2341.000000	8.826781
2340.000000	8.821173
2339.000000	8.823618
2338.000000	8.832662
2337.000000	8.845466
2336.000000	8.858991
2335.000000	8.871132
2334.000000	8.881246
2333.000000	8.889858
2332.000000	8.897862
2331.000000	8.905839
2330.000000	8.913913
2329.000000	8.921998
2328.000000	8.930078
2327.000000	8.938285
2326.000000	8.946812
2325.000000	8.955796
2324.000000	8.965214
2323.000000	8.974829
2322.000000	8.984186
2321.000000	8.992756
2320.000000	9.000188
2319.000000	9.006519
2318.000000	9.012159
2317.000000	9.017670
2316.000000	9.023461
2315.000000	9.029572
2314.000000	9.035641
2313.000000	9.041135
2312.000000	9.045756
2311.000000	9.049671
2310.000000	9.053317
2309.000000	9.056996
2308.000000	9.060675
2307.000000	9.064125
2306.000000	9.067145
2305.000000	9.069656
2304.000000	9.071728
2303.000000	9.073556
2302.000000	9.075325
2301.000000	9.077036
2300.000000	9.078488
2299.000000	9.079501
2298.000000	9.080125
2297.000000	9.080678
2296.000000	9.081575
2295.000000	9.083038
2294.000000	9.084858
2293.000000	9.086467
2292.000000	9.087407
2291.000000	9.087781
2290.000000	9.088188
2289.000000	9.089171
2288.000000	9.090676
2287.000000	9.091849
2286.000000	9.091320
2285.000000	9.088036
2284.000000	9.082329
2283.000000	9.076215
2282.000000	9.072202
2281.000000	9.071423
2280.000000	9.072951
2279.000000	9.074944
2278.000000	9.076230
2277.000000	9.076773
2276.000000	9.077055
2275.000000	9.077407
2274.000000	9.077856
2273.000000	9.078252
2272.000000	9.078454
2271.000000	9.078492
2270.000000	9.078550
2269.000000	9.078718
2268.000000	9.078830
2267.000000	9.078636
2266.000000	9.078068
2265.000000	9.077252
2264.000000	9.076388
2263.000000	9.075727
2262.000000	9.075555
2261.000000	9.076008
2260.000000	9.076911
2259.000000	9.077885
2258.000000	9.078574
2257.000000	9.078713
2256.000000	9.078172
2255.000000	9.077125
2254.000000	9.076076
2253.000000	9.075493
2252.000000	9.075391
2251.000000	9.075431
2250.000000	9.075361
2249.000000	9.075230
2248.000000	9.075186
2247.000000	9.075287
2246.000000	9.075544
2245.000000	9.076002
2244.000000	9.076659
2243.000000	9.077373
2242.000000	9.077933
2241.000000	9.078240
2240.000000	9.078395
2239.000000	9.078593
2238.000000	9.078903
2237.000000	9.079202
2236.000000	9.079408
2235.000000	9.079733
2234.000000	9.080547
2233.000000	9.081936
2232.000000	9.083531
2231.000000	9.084863
2230.000000	9.085752
2229.000000	9.086281
2228.000000	9.086570
2227.000000	9.086723
2226.000000	9.086877
2225.000000	9.087109
2224.000000	9.087354
2223.000000	9.087570
2222.000000	9.087906
2221.000000	9.088554
2220.000000	9.089470
2219.000000	9.090382
2218.000000	9.091048
2217.000000	9.091405
2216.000000	9.091550
2215.000000	9.091695
2214.000000	9.092079
2213.000000	9.092761
2212.000000	9.093529
2211.000000	9.094146
2210.000000	9.094642
2209.000000	9.095198
2208.000000	9.095802
2207.000000	9.096233
2206.000000	9.096400
2205.000000	9.096507
2204.000000	9.096820
2203.000000	9.097379
2202.000000	9.098022
2201.000000	9.098599
2200.000000	9.099096
2199.000000	9.099606
2198.000000	9.100205
2197.000000	9.100854
2196.000000	9.101436
2195.000000	9.101937
2194.000000	9.102539
2193.000000	9.103451
2192.000000	9.104665
2191.000000	9.105939
2190.000000	9.106987
2189.000000	9.107624
2188.000000	9.107795
2187.000000	9.107600
2186.000000	9.107265
2185.000000	9.107010
2184.000000	9.106915
2183.000000	9.106989
2182.000000	9.107322
2181.000000	9.108047
2180.000000	9.109128
2179.000000	9.110300
2178.000000	9.111281
2177.000000	9.112014
2176.000000	9.112658
2175.000000	9.113356
2174.000000	9.114013
2173.000000	9.114334
2172.000000	9.114153
2171.000000	9.113754
2170.000000	9.113794
2169.000000	9.114768
2168.000000	9.116560
2167.000000	9.118547
2166.000000	9.120154
2165.000000	9.121313
2164.000000	9.122442
2163.000000	9.124010
2162.000000	9.126061
2161.000000	9.128093
2160.000000	9.129464
2159.000000	9.130023
2158.000000	9.130300
2157.000000	9.130996
2156.000000	9.132312
2155.000000	9.133837
2154.000000	9.135049
2153.000000	9.135835
2152.000000	9.136532
2151.000000	9.137568
2150.000000	9.139113
2149.000000	9.141000
2148.000000	9.142923
2147.000000	9.144705
2146.000000	9.146397
2145.000000	9.148170
2144.000000	9.150109
2143.000000	9.152107
2142.000000	9.153913
2141.000000	9.155320
2140.000000	9.156374
2139.000000	9.157405
2138.000000	9.158792
2137.000000	9.160669
2136.000000	9.162862
2135.000000	9.165067
2134.000000	9.167045
2133.000000	9.168723
2132.000000	9.170206
2131.000000	9.171709
2130.000000	9.173351
2129.000000	9.175041
2128.000000	9.176651
2127.000000	9.178261
2126.000000	9.180121
2125.000000	9.182366
2124.000000	9.184898
2123.000000	9.187542
2122.000000	9.190182
2121.000000	9.192753
2120.000000	9.195232
2119.000000	9.197696
2118.000000	9.200257
2117.000000	9.202899
2116.000000	9.205483
2115.000000	9.207932
2114.000000	9.210314
2113.000000	9.212767
2112.000000	9.215463
2111.000000	9.218608
2110.000000	9.222295
2109.000000	9.226317
2108.000000	9.230295
2107.000000	9.234010
2106.000000	9.237479
2105.000000	9.240747
2104.000000	9.243818
2103.000000	9.246791
2102.000000	9.249810
2101.000000	9.252838
2100.000000	9.255726
2099.000000	9.258590
2098.000000	9.261865
2097.000000	9.265810
2096.000000	9.270162
2095.000000	9.274374
2094.000000	9.278073
2093.000000	9.281204
2092.000000	9.283966
2091.000000	9.286758
2090.000000	9.289996
2089.000000	9.293802
2088.000000	9.297943
2087.000000	9.302129
2086.000000	9.306223
2085.000000	9.310159
2084.000000	9.313885
2083.000000	9.317517
2082.000000	9.321297
2081.000000	9.325283
2080.000000	9.329298
2079.000000	9.333271
2078.000000	9.337397
2077.000000	9.341797
2076.000000	9.346276
2075.000000	9.350588
2074.000000	9.354701
2073.000000	9.358631
2072.000000	9.362273
2071.000000	9.365636
2070.000000	9.369018
2069.000000	9.372683
2068.000000	9.376558
2067.000000	9.380503
2066.000000	9.384686
2065.000000	9.389375
2064.000000	9.394501
2063.000000	9.399701
2062.000000	9.404721
2061.000000	9.409538
2060.000000	9.414193
2059.000000	9.418734
2058.000000	9.423239
2057.000000	9.427694
2056.000000	9.431948
2055.000000	9.435968
2054.000000	9.440000
2053.000000	9.444245
2052.000000	9.448512
2051.000000	9.452455
2050.000000	9.456061
2049.000000	9.459652
2048.000000	9.463476
2047.000000	9.467507
2046.000000	9.471579
2045.000000	9.475521
2044.000000	9.479225
2043.000000	9.482780
2042.000000	9.486463
2041.000000	9.490418
2040.000000	9.494439
2039.000000	9.498238
2038.000000	9.501781
2037.000000	9.505193
2036.000000	9.508548
2035.000000	9.511956
2034.000000	9.515601
2033.000000	9.519377
2032.000000	9.522722
2031.000000	9.525267
2030.000000	9.527527
2029.000000	9.530469
2028.000000	9.534399
2027.000000	9.538708
2026.000000	9.542731
2025.000000	9.546404
2024.000000	9.549978
2023.000000	9.553489
2022.000000	9.556754
2021.000000	9.559630
2020.000000	9.562123
2019.000000	9.564441
2018.000000	9.567050
2017.000000	9.570429
2016.000000	9.574583
2015.000000	9.579008
2014.000000	9.583239
2013.000000	9.587251
2012.000000	9.591175
2011.000000	9.594907
2010.000000	9.598222
2009.000000	9.601171
2008.000000	9.604083
2007.000000	9.607202
2006.000000	9.610442
2005.000000	9.613504
2004.000000	9.616139
2003.000000	9.618335
2002.000000	9.620330
2001.000000	9.622409
2000.000000	9.624647
1999.000000	9.626892
1998.000000	9.629014
1997.000000	9.631042
1996.000000	9.632977
1995.000000	9.634604
1994.000000	9.635702
1993.000000	9.636437
1992.000000	9.637390
1991.000000	9.639104
1990.000000	9.641656
1989.000000	9.644663
1988.000000	9.647582
1987.000000	9.649971
1986.000000	9.651629
1985.000000	9.652699
1984.000000	9.653630
1983.000000	9.654837
1982.000000	9.656353
1981.000000	9.657873
1980.000000	9.659140
1979.000000	9.660117
1978.000000	9.660806
1977.000000	9.661150
1976.000000	9.661234
1975.000000	9.661364
1974.000000	9.661747
1973.000000	9.662235
1972.000000	9.662544
1971.000000	9.662590
1970.000000	9.662469
1969.000000	9.662308
1968.000000	9.662376
1967.000000	9.663131
1966.000000	9.664780
1965.000000	9.666794
1964.000000	9.668065
1963.000000	9.667519
1962.000000	9.664616
1961.000000	9.659779
1960.000000	9.654718
1959.000000	9.651895
1958.000000	9.652777
1957.000000	9.656492
1956.000000	9.660637
1955.000000	9.663443
1954.000000	9.664770
1953.000000	9.665242
1952.000000	9.665231
1951.000000	9.664903
1950.000000	9.664513
1949.000000	9.664175
1948.000000	9.663671
1947.000000	9.662779
1946.000000	9.661507
1945.000000	9.659899
1944.000000	9.658080
1943.000000	9.656637
1942.000000	9.656429
1941.000000	9.657637
1940.000000	9.659356
1939.000000	9.660437
1938.000000	9.660429
1937.000000	9.659554
1936.000000	9.658188
1935.000000	9.656694
1934.000000	9.655377
1933.000000	9.654244
1932.000000	9.653038
1931.000000	9.651725
1930.000000	9.650603
1929.000000	9.649753
1928.000000	9.648699
1927.000000	9.646898
1926.000000	9.644279
1925.000000	9.641194
1924.000000	9.638142
1923.000000	9.635540
1922.000000	9.633277
1921.000000	9.630502
1920.000000	9.626627
1919.000000	9.622681
1918.000000	9.620787
1917.000000	9.621754
1916.000000	9.623908
1915.000000	9.624824
1914.000000	9.623563
1913.000000	9.620689
1912.000000	9.616938
1911.000000	9.612850
1910.000000	9.609154
1909.000000	9.606413
1908.000000	9.604355
1907.000000	9.602268
1906.000000	9.599939
1905.000000	9.597604
1904.000000	9.595213
1903.000000	9.592446
1902.000000	9.589315
1901.000000	9.586135
1900.000000	9.582974
1899.000000	9.579710
1898.000000	9.576520
1897.000000	9.573794
1896.000000	9.571641
1895.000000	9.569830
1894.000000	9.567975
1893.000000	9.565487
1892.000000	9.561858
1891.000000	9.557578
1890.000000	9.554294
1889.000000	9.553243
1888.000000	9.553800
1887.000000	9.554283
1886.000000	9.553888
1885.000000	9.553038
1884.000000	9.552122
1883.000000	9.550916
1882.000000	9.549250
1881.000000	9.547365
1880.000000	9.545412
1879.000000	9.543250
1878.000000	9.540910
1877.000000	9.538724
1876.000000	9.536866
1875.000000	9.535082
1874.000000	9.532699
1873.000000	9.528598
1872.000000	9.521763
1871.000000	9.512780
1870.000000	9.504519
1869.000000	9.500222
1868.000000	9.500641
1867.000000	9.503650
1866.000000	9.506549
1865.000000	9.507990
1864.000000	9.507829
1863.000000	9.506292
1862.000000	9.503768
1861.000000	9.500739
1860.000000	9.497489
1859.000000	9.494188
1858.000000	9.491227
1857.000000	9.488887
1856.000000	9.486737
1855.000000	9.484050
1854.000000	9.480775
1853.000000	9.477411
1852.000000	9.473984
1851.000000	9.470013
1850.000000	9.465382
1849.000000	9.460056
1848.000000	9.452866
1847.000000	9.442213
1846.000000	9.429028
1845.000000	9.417914
1844.000000	9.413725
1843.000000	9.416947
1842.000000	9.423201
1841.000000	9.427275
1840.000000	9.427058
1839.000000	9.423760
1838.000000	9.419473
1837.000000	9.415230
1836.000000	9.410961
1835.000000	9.406172
1834.000000	9.400112
1833.000000	9.391923
1832.000000	9.381709
1831.000000	9.371535
1830.000000	9.364239
1829.000000	9.360535
1828.000000	9.358050
1827.000000	9.354072
1826.000000	9.348665
1825.000000	9.344075
1824.000000	9.341536
1823.000000	9.339960
1822.000000	9.337640
1821.000000	9.333928
1820.000000	9.328991
1819.000000	9.323134
1818.000000	9.316950
1817.000000	9.311238
1816.000000	9.306097
1815.000000	9.300554
1814.000000	9.293635
1813.000000	9.285490
1812.000000	9.277236
1811.000000	9.269994
1810.000000	9.264181
1809.000000	9.259324
1808.000000	9.254414
1807.000000	9.248684
1806.000000	9.241979
1805.000000	9.234181
1804.000000	9.224825
1803.000000	9.213981
1802.000000	9.203085
1801.000000	9.193922
1800.000000	9.186912
1799.000000	9.181148
1798.000000	9.175573
1797.000000	9.168861
1796.000000	9.158724
1795.000000	9.143549
1794.000000	9.125483
1793.000000	9.110235
1792.000000	9.102481
1791.000000	9.101878
1790.000000	9.103900
1789.000000	9.103667
1788.000000	9.098739
1787.000000	9.089691
1786.000000	9.079175
1785.000000	9.069776
1784.000000	9.061918
1783.000000	9.054142
1782.000000	9.045536
1781.000000	9.036920
1780.000000	9.029332
1779.000000	9.022477
1778.000000	9.015088
1777.000000	9.005477
1776.000000	8.991382
1775.000000	8.971490
1774.000000	8.948782
1773.000000	8.930573
1772.000000	8.922544
1771.000000	8.923024
1770.000000	8.925142
1769.000000	8.924369
1768.000000	8.921815
1767.000000	8.919986
1766.000000	8.917796
1765.000000	8.911509
1764.000000	8.899649
1763.000000	8.885410
1762.000000	8.873888
1761.000000	8.867294
1760.000000	8.863130
1759.000000	8.857187
1758.000000	8.848171
1757.000000	8.838474
1756.000000	8.829920
1755.000000	8.820096
1754.000000	8.804781
1753.000000	8.783847
1752.000000	8.762808
1751.000000	8.747810
1750.000000	8.740289
1749.000000	8.737142
1748.000000	8.734583
1747.000000	8.730502
1746.000000	8.724149
1745.000000	8.715402
1744.000000	8.704508
1743.000000	8.691662
1742.000000	8.677188
1741.000000	8.662992
1740.000000	8.652572
1739.000000	8.646892
1738.000000	8.640173
1737.000000	8.623423
1736.000000	8.595035
1735.000000	8.566242
1734.000000	8.552575
1733.000000	8.559377
1732.000000	8.577705
1731.000000	8.594305
1730.000000	8.602847
1729.000000	8.604946
1728.000000	8.603998
1727.000000	8.601362
1726.000000	8.597320
1725.000000	8.592519
1724.000000	8.587554
1723.000000	8.581917
1722.000000	8.573213
1721.000000	8.557530
1720.000000	8.532883
1719.000000	8.504147
1718.000000	8.482551
1717.000000	8.477074
1716.000000	8.486396
1715.000000	8.501221
1714.000000	8.513440
1713.000000	8.520553
1712.000000	8.522692
1711.000000	8.519895
1710.000000	8.513049
1709.000000	8.504016
1708.000000	8.493739
1707.000000	8.482845
1706.000000	8.473807
1705.000000	8.467994
1704.000000	8.459992
1703.000000	8.441081
1702.000000	8.411961
1701.000000	8.386644
1700.000000	8.377842
1699.000000	8.381729
1698.000000	8.383937
1697.000000	8.379267
1696.000000	8.378015
1695.000000	8.391138
1694.000000	8.415418
1693.000000	8.437174
1692.000000	8.447086
1691.000000	8.446967
1690.000000	8.443023
1689.000000	8.436136
1688.000000	8.420590
1687.000000	8.392381
1686.000000	8.358314
1685.000000	8.334793
1684.000000	8.334835
1683.000000	8.356002
1682.000000	8.383053
1681.000000	8.402138
1680.000000	8.409683
1679.000000	8.408187
1678.000000	8.399300
1677.000000	8.384896
1676.000000	8.371135
1675.000000	8.365156
1674.000000	8.367051
1673.000000	8.368991
1672.000000	8.363945
1671.000000	8.353248
1670.000000	8.344419
1669.000000	8.343201
1668.000000	8.348744
1667.000000	8.355057
1666.000000	8.355793
1665.000000	8.348792
1664.000000	8.337775
1663.000000	8.329448
1662.000000	8.327701
1661.000000	8.330488
1660.000000	8.332769
1659.000000	8.331051
1658.000000	8.322901
1657.000000	8.303223
1656.000000	8.266460
1655.000000	8.216612
1654.000000	8.172616
1653.000000	8.157128
1652.000000	8.176373
1651.000000	8.212746
1650.000000	8.239619
1649.000000	8.243161
1648.000000	8.229796
1647.000000	8.215771
1646.000000	8.212634
1645.000000	8.220963
1644.000000	8.233309
1643.000000	8.241183
1642.000000	8.240935
1641.000000	8.234304
1640.000000	8.223419
1639.000000	8.206764
1638.000000	8.182597
1637.000000	8.155847
1636.000000	8.137760
1635.000000	8.136271
1634.000000	8.148031
1633.000000	8.161480
1632.000000	8.166727
1631.000000	8.161465
1630.000000	8.149271
1629.000000	8.134856
1628.000000	8.120756
1627.000000	8.106362
1626.000000	8.089272
1625.000000	8.068457
1624.000000	8.046427
1623.000000	8.027369
1622.000000	8.012417
1621.000000	7.997208
1620.000000	7.975158
1619.000000	7.944182
1618.000000	7.910407
1617.000000	7.884223
1616.000000	7.871132
1615.000000	7.866157
1614.000000	7.858049
1613.000000	7.839253
1612.000000	7.811314
1611.000000	7.781400
1610.000000	7.755840
1609.000000	7.737691
1608.000000	7.727991
1607.000000	7.726467
1606.000000	7.731131
1605.000000	7.739083
1604.000000	7.748384
1603.000000	7.758505
1602.000000	7.769149
1601.000000	7.779612
1600.000000	7.789363
1599.000000	7.798354
1598.000000	7.806504
1597.000000	7.813501
1596.000000	7.819245
1595.000000	7.823981
1594.000000	7.827886
1593.000000	7.830917
1592.000000	7.833090
1591.000000	7.834482
1590.000000	7.834895
1589.000000	7.833944
1588.000000	7.831609
1587.000000	7.828476
1586.000000	7.825289
1585.000000	7.822394
1584.000000	7.819742
1583.000000	7.817379
1582.000000	7.815421
1581.000000	7.812720
1580.000000	7.805643
1579.000000	7.790205
1578.000000	7.767749
1577.000000	7.747921
1576.000000	7.742580
1575.000000	7.754444
1574.000000	7.772950
1573.000000	7.783260
1572.000000	7.779188
1571.000000	7.766578
1570.000000	7.755416
1569.000000	7.750684
1568.000000	7.750253
1567.000000	7.749030
1566.000000	7.743744
1565.000000	7.734028
1564.000000	7.719227
1563.000000	7.695204
1562.000000	7.657469
1561.000000	7.610138
1560.000000	7.569593
1559.000000	7.554032
1558.000000	7.567407
1557.000000	7.596275
1556.000000	7.623755
1555.000000	7.643876
1554.000000	7.660827
1553.000000	7.678339
1552.000000	7.694759
1551.000000	7.707493
1550.000000	7.717140
1549.000000	7.725392
1548.000000	7.731747
1547.000000	7.734537
1546.000000	7.733729
1545.000000	7.730598
1544.000000	7.725081
1543.000000	7.715550
1542.000000	7.702564
1541.000000	7.692573
1540.000000	7.696047
1539.000000	7.719277
1538.000000	7.756687
1537.000000	7.792842
1536.000000	7.814504
1535.000000	7.821177
1534.000000	7.822966
1533.000000	7.829028
1532.000000	7.839976
1531.000000	7.850528
1530.000000	7.856010
1529.000000	7.855180
1528.000000	7.849666
1527.000000	7.842725
1526.000000	7.836729
1525.000000	7.830037
1524.000000	7.818286
1523.000000	7.801119
1522.000000	7.785796
1521.000000	7.780691
1520.000000	7.785657
1519.000000	7.792028
1518.000000	7.792389
1517.000000	7.787190
1516.000000	7.780895
1515.000000	7.775167
1514.000000	7.768518
1513.000000	7.760362
1512.000000	7.751345
1511.000000	7.739400
1510.000000	7.718863
1509.000000	7.686357
1508.000000	7.647268
1507.000000	7.614131
1506.000000	7.596375
1505.000000	7.590627
1504.000000	7.581200
1503.000000	7.550472
1502.000000	7.488974
1501.000000	7.396771
1500.000000	7.278712
