PE IR       SUBTECH     SPECTRUM    ASCII       PEDS        4.00        
   -1
TE108B1_007.ASC
20/02/21
14:40:49.00
20/02/21
14:40:49.00
Administrator
Sample 007 By Administrator Date Friday, February 21 2020
1500.000000
#HDR
-1
-1
#GR
cm-1
%T
1.0
0.0
4000.000000
-1.000000
2501
8
10.425270
8.558542
#DATA
4000.000000	10.072775
3999.000000	10.072920
3998.000000	10.074157
3997.000000	10.075859
3996.000000	10.077160
3995.000000	10.077620
3994.000000	10.077529
3993.000000	10.077521
3992.000000	10.077884
3991.000000	10.078314
3990.000000	10.078315
3989.000000	10.077768
3988.000000	10.077074
3987.000000	10.076817
3986.000000	10.077323
3985.000000	10.078488
3984.000000	10.079957
3983.000000	10.081421
3982.000000	10.082751
3981.000000	10.083917
3980.000000	10.084863
3979.000000	10.085536
3978.000000	10.085967
3977.000000	10.086255
3976.000000	10.086489
3975.000000	10.086756
3974.000000	10.087226
3973.000000	10.088110
3972.000000	10.089482
3971.000000	10.091156
3970.000000	10.092808
3969.000000	10.094257
3968.000000	10.095645
3967.000000	10.097356
3966.000000	10.099694
3965.000000	10.102560
3964.000000	10.105437
3963.000000	10.107742
3962.000000	10.109250
3961.000000	10.110199
3960.000000	10.111045
3959.000000	10.112135
3958.000000	10.113567
3957.000000	10.115246
3956.000000	10.117046
3955.000000	10.118922
3954.000000	10.120879
3953.000000	10.122847
3952.000000	10.124678
3951.000000	10.126334
3950.000000	10.128029
3949.000000	10.130077
3948.000000	10.132594
3947.000000	10.135437
3946.000000	10.138460
3945.000000	10.141717
3944.000000	10.145331
3943.000000	10.149183
3942.000000	10.152821
3941.000000	10.155700
3940.000000	10.157566
3939.000000	10.158667
3938.000000	10.159629
3937.000000	10.161091
3936.000000	10.163371
3935.000000	10.166402
3934.000000	10.169914
3933.000000	10.173607
3932.000000	10.177194
3931.000000	10.180388
3930.000000	10.183028
3929.000000	10.185273
3928.000000	10.187618
3927.000000	10.190576
3926.000000	10.194211
3925.000000	10.198004
3924.000000	10.201308
3923.000000	10.203987
3922.000000	10.206562
3921.000000	10.209683
3920.000000	10.213522
3919.000000	10.217667
3918.000000	10.221505
3917.000000	10.224610
3916.000000	10.226923
3915.000000	10.228768
3914.000000	10.230729
3913.000000	10.233283
3912.000000	10.236422
3911.000000	10.239675
3910.000000	10.242635
3909.000000	10.245466
3908.000000	10.248870
3907.000000	10.253493
3906.000000	10.259292
3905.000000	10.265427
3904.000000	10.270783
3903.000000	10.274710
3902.000000	10.277359
3901.000000	10.279354
3900.000000	10.281184
3899.000000	10.282874
3898.000000	10.284156
3897.000000	10.284937
3896.000000	10.285699
3895.000000	10.287455
3894.000000	10.291045
3893.000000	10.296209
3892.000000	10.301385
3891.000000	10.304856
3890.000000	10.306361
3889.000000	10.307481
3888.000000	10.310115
3887.000000	10.314546
3886.000000	10.319068
3885.000000	10.321665
3884.000000	10.322010
3883.000000	10.321750
3882.000000	10.322792
3881.000000	10.325470
3880.000000	10.328482
3879.000000	10.330564
3878.000000	10.331923
3877.000000	10.333814
3876.000000	10.336957
3875.000000	10.340816
3874.000000	10.344547
3873.000000	10.348170
3872.000000	10.352339
3871.000000	10.357016
3870.000000	10.360924
3869.000000	10.362718
3868.000000	10.362551
3867.000000	10.362089
3866.000000	10.362821
3865.000000	10.364605
3864.000000	10.366042
3863.000000	10.366174
3862.000000	10.365394
3861.000000	10.364706
3860.000000	10.364624
3859.000000	10.365427
3858.000000	10.368311
3857.000000	10.375372
3856.000000	10.387568
3855.000000	10.402440
3854.000000	10.414455
3853.000000	10.418440
3852.000000	10.413362
3851.000000	10.402908
3850.000000	10.392557
3849.000000	10.385949
3848.000000	10.383558
3847.000000	10.383950
3846.000000	10.385686
3845.000000	10.388019
3844.000000	10.390503
3843.000000	10.392862
3842.000000	10.395492
3841.000000	10.399467
3840.000000	10.405358
3839.000000	10.411964
3838.000000	10.416659
3837.000000	10.417430
3836.000000	10.414598
3835.000000	10.410513
3834.000000	10.407557
3833.000000	10.406459
3832.000000	10.406284
3831.000000	10.405823
3830.000000	10.404804
3829.000000	10.403821
3828.000000	10.403344
3827.000000	10.403205
3826.000000	10.403247
3825.000000	10.404172
3824.000000	10.407128
3823.000000	10.412119
3822.000000	10.417130
3821.000000	10.419591
3820.000000	10.418995
3819.000000	10.417741
3818.000000	10.418769
3817.000000	10.422296
3816.000000	10.425270
3815.000000	10.424286
3814.000000	10.418890
3813.000000	10.411778
3812.000000	10.406259
3811.000000	10.404041
3810.000000	10.405056
3809.000000	10.408179
3808.000000	10.411528
3807.000000	10.412952
3806.000000	10.411615
3805.000000	10.409316
3804.000000	10.409303
3803.000000	10.412984
3802.000000	10.417959
3801.000000	10.419926
3800.000000	10.416718
3799.000000	10.410166
3798.000000	10.404009
3797.000000	10.400423
3796.000000	10.398769
3795.000000	10.397167
3794.000000	10.394655
3793.000000	10.391707
3792.000000	10.389216
3791.000000	10.387520
3790.000000	10.386396
3789.000000	10.385596
3788.000000	10.385067
3787.000000	10.384736
3786.000000	10.384304
3785.000000	10.383387
3784.000000	10.381888
3783.000000	10.380229
3782.000000	10.379113
3781.000000	10.378875
3780.000000	10.379016
3779.000000	10.378512
3778.000000	10.376751
3777.000000	10.374063
3776.000000	10.371245
3775.000000	10.368731
3774.000000	10.366478
3773.000000	10.364546
3772.000000	10.363338
3771.000000	10.363068
3770.000000	10.363281
3769.000000	10.363213
3768.000000	10.362507
3767.000000	10.361285
3766.000000	10.359587
3765.000000	10.357159
3764.000000	10.353984
3763.000000	10.350773
3762.000000	10.348610
3761.000000	10.348010
3760.000000	10.348370
3759.000000	10.348379
3758.000000	10.347063
3757.000000	10.344644
3756.000000	10.342546
3755.000000	10.342522
3754.000000	10.345476
3753.000000	10.350761
3752.000000	10.356295
3751.000000	10.359364
3750.000000	10.358065
3749.000000	10.352840
3748.000000	10.346882
3747.000000	10.344153
3746.000000	10.345920
3745.000000	10.348980
3744.000000	10.348054
3743.000000	10.340605
3742.000000	10.329129
3741.000000	10.318743
3740.000000	10.313048
3739.000000	10.312226
3738.000000	10.314138
3737.000000	10.316282
3736.000000	10.316906
3735.000000	10.315366
3734.000000	10.312034
3733.000000	10.307646
3732.000000	10.302490
3731.000000	10.296420
3730.000000	10.289776
3729.000000	10.283792
3728.000000	10.279609
3727.000000	10.277047
3726.000000	10.274798
3725.000000	10.271859
3724.000000	10.268367
3723.000000	10.264906
3722.000000	10.261428
3721.000000	10.257232
3720.000000	10.251820
3719.000000	10.245401
3718.000000	10.238603
3717.000000	10.232172
3716.000000	10.227171
3715.000000	10.224689
3714.000000	10.224174
3713.000000	10.221691
3712.000000	10.211197
3711.000000	10.189443
3710.000000	10.160365
3709.000000	10.133665
3708.000000	10.117864
3707.000000	10.114301
3706.000000	10.117586
3705.000000	10.121236
3704.000000	10.122119
3703.000000	10.120203
3702.000000	10.115850
3701.000000	10.108723
3700.000000	10.098883
3699.000000	10.087609
3698.000000	10.076580
3697.000000	10.066562
3696.000000	10.057241
3695.000000	10.048022
3694.000000	10.038750
3693.000000	10.029850
3692.000000	10.022004
3691.000000	10.015469
3690.000000	10.009285
3689.000000	10.001219
3688.000000	9.989020
3687.000000	9.972233
3686.000000	9.952700
3685.000000	9.933174
3684.000000	9.915427
3683.000000	9.899520
3682.000000	9.884535
3681.000000	9.869794
3680.000000	9.855561
3679.000000	9.842798
3678.000000	9.832002
3677.000000	9.821891
3676.000000	9.809525
3675.000000	9.792565
3674.000000	9.771840
3673.000000	9.751060
3672.000000	9.733349
3671.000000	9.718169
3670.000000	9.702052
3669.000000	9.682264
3668.000000	9.659323
3667.000000	9.635908
3666.000000	9.614148
3665.000000	9.594394
3664.000000	9.575997
3663.000000	9.558384
3662.000000	9.541270
3661.000000	9.524551
3660.000000	9.508457
3659.000000	9.493513
3658.000000	9.479821
3657.000000	9.466366
3656.000000	9.451584
3655.000000	9.435053
3654.000000	9.418523
3653.000000	9.404755
3652.000000	9.394972
3651.000000	9.387428
3650.000000	9.378587
3649.000000	9.365827
3648.000000	9.349147
3647.000000	9.330605
3646.000000	9.312536
3645.000000	9.296290
3644.000000	9.282102
3643.000000	9.269585
3642.000000	9.258228
3641.000000	9.247606
3640.000000	9.237341
3639.000000	9.227038
3638.000000	9.216474
3637.000000	9.205833
3636.000000	9.195566
3635.000000	9.185940
3634.000000	9.177011
3633.000000	9.169234
3632.000000	9.163655
3631.000000	9.160759
3630.000000	9.158980
3629.000000	9.155052
3628.000000	9.146517
3627.000000	9.133977
3626.000000	9.120538
3625.000000	9.109202
3624.000000	9.101008
3623.000000	9.095418
3622.000000	9.091647
3621.000000	9.089103
3620.000000	9.086835
3619.000000	9.083436
3618.000000	9.077969
3617.000000	9.070917
3616.000000	9.063885
3615.000000	9.058273
3614.000000	9.054270
3613.000000	9.051131
3612.000000	9.048170
3611.000000	9.045244
3610.000000	9.042306
3609.000000	9.038890
3608.000000	9.034436
3607.000000	9.029176
3606.000000	9.024208
3605.000000	9.020288
3604.000000	9.016606
3603.000000	9.011241
3602.000000	9.003226
3601.000000	8.994035
3600.000000	8.986734
3599.000000	8.983489
3598.000000	8.983994
3597.000000	8.986119
3596.000000	8.987804
3595.000000	8.988177
3594.000000	8.987388
3593.000000	8.986020
3592.000000	8.984834
3591.000000	8.984566
3590.000000	8.985433
3589.000000	8.986736
3588.000000	8.987246
3587.000000	8.986148
3586.000000	8.983629
3585.000000	8.980519
3584.000000	8.977554
3583.000000	8.975034
3582.000000	8.973027
3581.000000	8.971609
3580.000000	8.970834
3579.000000	8.970572
3578.000000	8.970513
3577.000000	8.970340
3576.000000	8.969890
3575.000000	8.969161
3574.000000	8.968233
3573.000000	8.967219
3572.000000	8.966339
3571.000000	8.965959
3570.000000	8.966420
3569.000000	8.967689
3568.000000	8.969197
3567.000000	8.970163
3566.000000	8.970126
3565.000000	8.969170
3564.000000	8.967674
3563.000000	8.965992
3562.000000	8.964420
3561.000000	8.963291
3560.000000	8.962882
3559.000000	8.963134
3558.000000	8.963578
3557.000000	8.963618
3556.000000	8.962957
3555.000000	8.961786
3554.000000	8.960598
3553.000000	8.959810
3552.000000	8.959526
3551.000000	8.959608
3550.000000	8.959929
3549.000000	8.960499
3548.000000	8.961321
3547.000000	8.962176
3546.000000	8.962631
3545.000000	8.962281
3544.000000	8.961009
3543.000000	8.959055
3542.000000	8.956903
3541.000000	8.955071
3540.000000	8.953908
3539.000000	8.953495
3538.000000	8.953673
3537.000000	8.954106
3536.000000	8.954369
3535.000000	8.954102
3534.000000	8.953266
3533.000000	8.952219
3532.000000	8.951455
3531.000000	8.951170
3530.000000	8.951132
3529.000000	8.950967
3528.000000	8.950527
3527.000000	8.949931
3526.000000	8.949365
3525.000000	8.948931
3524.000000	8.948654
3523.000000	8.948498
3522.000000	8.948311
3521.000000	8.947798
3520.000000	8.946656
3519.000000	8.944800
3518.000000	8.942479
3517.000000	8.940171
3516.000000	8.938316
3515.000000	8.937107
3514.000000	8.936501
3513.000000	8.936356
3512.000000	8.936491
3511.000000	8.936609
3510.000000	8.936309
3509.000000	8.935320
3508.000000	8.933759
3507.000000	8.932071
3506.000000	8.930692
3505.000000	8.929780
3504.000000	8.929202
3503.000000	8.928625
3502.000000	8.927615
3501.000000	8.925870
3500.000000	8.923539
3499.000000	8.921251
3498.000000	8.919594
3497.000000	8.918535
3496.000000	8.917459
3495.000000	8.915831
3494.000000	8.913692
3493.000000	8.911497
3492.000000	8.909614
3491.000000	8.908114
3490.000000	8.906921
3489.000000	8.905936
3488.000000	8.905024
3487.000000	8.904041
3486.000000	8.902950
3485.000000	8.901865
3484.000000	8.900897
3483.000000	8.899968
3482.000000	8.898778
3481.000000	8.896937
3480.000000	8.894237
3479.000000	8.890905
3478.000000	8.887609
3477.000000	8.885072
3476.000000	8.883537
3475.000000	8.882599
3474.000000	8.881561
3473.000000	8.879962
3472.000000	8.877814
3471.000000	8.875451
3470.000000	8.873216
3469.000000	8.871231
3468.000000	8.869396
3467.000000	8.867562
3466.000000	8.865675
3465.000000	8.863710
3464.000000	8.861509
3463.000000	8.858855
3462.000000	8.855764
3461.000000	8.852616
3460.000000	8.849853
3459.000000	8.847567
3458.000000	8.845458
3457.000000	8.843182
3456.000000	8.840658
3455.000000	8.838025
3454.000000	8.835413
3453.000000	8.832837
3452.000000	8.830284
3451.000000	8.827822
3450.000000	8.825519
3449.000000	8.823284
3448.000000	8.820871
3447.000000	8.818160
3446.000000	8.815370
3445.000000	8.812876
3444.000000	8.810745
3443.000000	8.808561
3442.000000	8.805795
3441.000000	8.802321
3440.000000	8.798527
3439.000000	8.794998
3438.000000	8.792139
3437.000000	8.790006
3436.000000	8.788298
3435.000000	8.786494
3434.000000	8.784146
3433.000000	8.781164
3432.000000	8.777872
3431.000000	8.774737
3430.000000	8.771994
3429.000000	8.769459
3428.000000	8.766699
3427.000000	8.763457
3426.000000	8.759984
3425.000000	8.756903
3424.000000	8.754642
3423.000000	8.753029
3422.000000	8.751456
3421.000000	8.749384
3420.000000	8.746647
3419.000000	8.743401
3418.000000	8.739976
3417.000000	8.736762
3416.000000	8.734012
3415.000000	8.731657
3414.000000	8.729417
3413.000000	8.727188
3412.000000	8.725196
3411.000000	8.723677
3410.000000	8.722499
3409.000000	8.721250
3408.000000	8.719661
3407.000000	8.717815
3406.000000	8.715943
3405.000000	8.714145
3404.000000	8.712363
3403.000000	8.710582
3402.000000	8.708937
3401.000000	8.707603
3400.000000	8.706578
3399.000000	8.705604
3398.000000	8.704343
3397.000000	8.702641
3396.000000	8.700624
3395.000000	8.698551
3394.000000	8.696621
3393.000000	8.694922
3392.000000	8.693499
3391.000000	8.692381
3390.000000	8.691544
3389.000000	8.690861
3388.000000	8.690104
3387.000000	8.689021
3386.000000	8.687487
3385.000000	8.685629
3384.000000	8.683718
3383.000000	8.681912
3382.000000	8.680134
3381.000000	8.678284
3380.000000	8.676505
3379.000000	8.675123
3378.000000	8.674314
3377.000000	8.673896
3376.000000	8.673495
3375.000000	8.672887
3374.000000	8.672181
3373.000000	8.671709
3372.000000	8.671715
3371.000000	8.672066
3370.000000	8.672272
3369.000000	8.671856
3368.000000	8.670724
3367.000000	8.669146
3366.000000	8.667427
3365.000000	8.665743
3364.000000	8.664279
3363.000000	8.663303
3362.000000	8.662911
3361.000000	8.662805
3360.000000	8.662521
3359.000000	8.661899
3358.000000	8.661196
3357.000000	8.660716
3356.000000	8.660449
3355.000000	8.660132
3354.000000	8.659556
3353.000000	8.658738
3352.000000	8.657853
3351.000000	8.657078
3350.000000	8.656501
3349.000000	8.656097
3348.000000	8.655760
3347.000000	8.655357
3346.000000	8.654805
3345.000000	8.654140
3344.000000	8.653539
3343.000000	8.653215
3342.000000	8.653227
3341.000000	8.653403
3340.000000	8.653504
3339.000000	8.653434
3338.000000	8.653215
3337.000000	8.652820
3336.000000	8.652181
3335.000000	8.651418
3334.000000	8.650877
3333.000000	8.650796
3332.000000	8.650991
3331.000000	8.650982
3330.000000	8.650429
3329.000000	8.649397
3328.000000	8.648242
3327.000000	8.647317
3326.000000	8.646763
3325.000000	8.646463
3324.000000	8.646180
3323.000000	8.645761
3322.000000	8.645187
3321.000000	8.644452
3320.000000	8.643507
3319.000000	8.642395
3318.000000	8.641300
3317.000000	8.640331
3316.000000	8.639353
3315.000000	8.638220
3314.000000	8.637127
3313.000000	8.636426
3312.000000	8.636072
3311.000000	8.635481
3310.000000	8.634151
3309.000000	8.632267
3308.000000	8.630564
3307.000000	8.629671
3306.000000	8.629721
3305.000000	8.630443
3304.000000	8.631352
3303.000000	8.631863
3302.000000	8.631491
3301.000000	8.630154
3300.000000	8.628270
3299.000000	8.626487
3298.000000	8.625287
3297.000000	8.624793
3296.000000	8.624811
3295.000000	8.624970
3294.000000	8.624913
3293.000000	8.624479
3292.000000	8.623748
3291.000000	8.622894
3290.000000	8.621975
3289.000000	8.620896
3288.000000	8.619581
3287.000000	8.618155
3286.000000	8.616902
3285.000000	8.616032
3284.000000	8.615495
3283.000000	8.615004
3282.000000	8.614225
3281.000000	8.612996
3280.000000	8.611472
3279.000000	8.610125
3278.000000	8.609464
3277.000000	8.609580
3276.000000	8.609932
3275.000000	8.609769
3274.000000	8.608842
3273.000000	8.607636
3272.000000	8.606813
3271.000000	8.606495
3270.000000	8.606189
3269.000000	8.605359
3268.000000	8.603948
3267.000000	8.602376
3266.000000	8.601151
3265.000000	8.600518
3264.000000	8.600360
3263.000000	8.600332
3262.000000	8.600092
3261.000000	8.599478
3260.000000	8.598527
3259.000000	8.597414
3258.000000	8.596413
3257.000000	8.595814
3256.000000	8.595736
3255.000000	8.595950
3254.000000	8.595983
3253.000000	8.595483
3252.000000	8.594460
3251.000000	8.593167
3250.000000	8.591843
3249.000000	8.590670
3248.000000	8.589887
3247.000000	8.589734
3246.000000	8.590137
3245.000000	8.590559
3244.000000	8.590346
3243.000000	8.589308
3242.000000	8.587889
3241.000000	8.586698
3240.000000	8.585914
3239.000000	8.585223
3238.000000	8.584305
3237.000000	8.583237
3236.000000	8.582348
3235.000000	8.581754
3234.000000	8.581170
3233.000000	8.580221
3232.000000	8.578841
3231.000000	8.577309
3230.000000	8.575918
3229.000000	8.574710
3228.000000	8.573565
3227.000000	8.572443
3226.000000	8.571433
3225.000000	8.570580
3224.000000	8.569800
3223.000000	8.569008
3222.000000	8.568235
3221.000000	8.567521
3220.000000	8.566774
3219.000000	8.565873
3218.000000	8.564903
3217.000000	8.564142
3216.000000	8.563766
3215.000000	8.563675
3214.000000	8.563678
3213.000000	8.563766
3212.000000	8.564081
3211.000000	8.564653
3210.000000	8.565243
3209.000000	8.565485
3208.000000	8.565162
3207.000000	8.564359
3206.000000	8.563412
3205.000000	8.562690
3204.000000	8.562384
3203.000000	8.562471
3202.000000	8.562827
3201.000000	8.563337
3200.000000	8.563875
3199.000000	8.564287
3198.000000	8.564464
3197.000000	8.564427
3196.000000	8.564254
3195.000000	8.563945
3194.000000	8.563459
3193.000000	8.562889
3192.000000	8.562536
3191.000000	8.562690
3190.000000	8.563326
3189.000000	8.564061
3188.000000	8.564440
3187.000000	8.564281
3186.000000	8.563777
3185.000000	8.563295
3184.000000	8.563122
3183.000000	8.563333
3182.000000	8.563828
3181.000000	8.564431
3180.000000	8.564966
3179.000000	8.565280
3178.000000	8.565248
3177.000000	8.564830
3176.000000	8.564187
3175.000000	8.563688
3174.000000	8.563681
3173.000000	8.564182
3172.000000	8.564853
3171.000000	8.565359
3170.000000	8.565683
3169.000000	8.566011
3168.000000	8.566389
3167.000000	8.566638
3166.000000	8.566612
3165.000000	8.566373
3164.000000	8.566057
3163.000000	8.565706
3162.000000	8.565304
3161.000000	8.564911
3160.000000	8.564672
3159.000000	8.564708
3158.000000	8.565050
3157.000000	8.565621
3156.000000	8.566235
3155.000000	8.566679
3154.000000	8.566886
3153.000000	8.566978
3152.000000	8.567070
3151.000000	8.567064
3150.000000	8.566729
3149.000000	8.566001
3148.000000	8.565104
3147.000000	8.564366
3146.000000	8.563927
3145.000000	8.563679
3144.000000	8.563433
3143.000000	8.563120
3142.000000	8.562819
3141.000000	8.562631
3140.000000	8.562558
3139.000000	8.562514
3138.000000	8.562412
3137.000000	8.562204
3136.000000	8.561891
3135.000000	8.561535
3134.000000	8.561284
3133.000000	8.561278
3132.000000	8.561504
3131.000000	8.561781
3130.000000	8.561941
3129.000000	8.561994
3128.000000	8.562063
3127.000000	8.562174
3126.000000	8.562150
3125.000000	8.561770
3124.000000	8.561056
3123.000000	8.560363
3122.000000	8.560116
3121.000000	8.560403
3120.000000	8.560872
3119.000000	8.561084
3118.000000	8.560908
3117.000000	8.560533
3116.000000	8.560156
3115.000000	8.559791
3114.000000	8.559369
3113.000000	8.558907
3112.000000	8.558556
3111.000000	8.558542
3110.000000	8.559007
3109.000000	8.559803
3108.000000	8.560489
3107.000000	8.560719
3106.000000	8.560655
3105.000000	8.560782
3104.000000	8.561306
3103.000000	8.561927
3102.000000	8.562308
3101.000000	8.562544
3100.000000	8.562989
3099.000000	8.563788
3098.000000	8.564819
3097.000000	8.565998
3096.000000	8.567389
3095.000000	8.568969
3094.000000	8.570463
3093.000000	8.571534
3092.000000	8.572093
3091.000000	8.572430
3090.000000	8.573026
3089.000000	8.574164
3088.000000	8.575655
3087.000000	8.577015
3086.000000	8.577986
3085.000000	8.578800
3084.000000	8.579851
3083.000000	8.581201
3082.000000	8.582569
3081.000000	8.583741
3080.000000	8.584807
3079.000000	8.585999
3078.000000	8.587437
3077.000000	8.589061
3076.000000	8.590693
3075.000000	8.592146
3074.000000	8.593361
3073.000000	8.594467
3072.000000	8.595650
3071.000000	8.596941
3070.000000	8.598177
3069.000000	8.599187
3068.000000	8.599980
3067.000000	8.600765
3066.000000	8.601803
3065.000000	8.603168
3064.000000	8.604618
3063.000000	8.605844
3062.000000	8.606910
3061.000000	8.608284
3060.000000	8.610265
3059.000000	8.612532
3058.000000	8.614492
3057.000000	8.615971
3056.000000	8.617291
3055.000000	8.618679
3054.000000	8.619984
3053.000000	8.621063
3052.000000	8.622128
3051.000000	8.623488
3050.000000	8.625104
3049.000000	8.626666
3048.000000	8.628023
3047.000000	8.629351
3046.000000	8.630877
3045.000000	8.632605
3044.000000	8.634341
3043.000000	8.635921
3042.000000	8.637354
3041.000000	8.638746
3040.000000	8.640098
3039.000000	8.641252
3038.000000	8.642140
3037.000000	8.643040
3036.000000	8.644441
3035.000000	8.646603
3034.000000	8.649326
3033.000000	8.652161
3032.000000	8.654710
3031.000000	8.656708
3030.000000	8.658028
3029.000000	8.658778
3028.000000	8.659307
3027.000000	8.659992
3026.000000	8.661065
3025.000000	8.662656
3024.000000	8.664851
3023.000000	8.667549
3022.000000	8.670354
3021.000000	8.672826
3020.000000	8.674836
3019.000000	8.676584
3018.000000	8.678318
3017.000000	8.680156
3016.000000	8.682114
3015.000000	8.684157
3014.000000	8.686208
3013.000000	8.688252
3012.000000	8.690449
3011.000000	8.693032
3010.000000	8.696058
3009.000000	8.699328
3008.000000	8.702543
3007.000000	8.705466
3006.000000	8.707942
3005.000000	8.709966
3004.000000	8.711789
3003.000000	8.713843
3002.000000	8.716437
3001.000000	8.719543
3000.000000	8.722896
2999.000000	8.726229
2998.000000	8.729376
2997.000000	8.732248
2996.000000	8.734894
2995.000000	8.737517
2994.000000	8.740327
2993.000000	8.743330
2992.000000	8.746368
2991.000000	8.749391
2990.000000	8.752582
2989.000000	8.756137
2988.000000	8.759961
2987.000000	8.763681
2986.000000	8.767000
2985.000000	8.769981
2984.000000	8.772963
2983.000000	8.776193
2982.000000	8.779583
2981.000000	8.782812
2980.000000	8.785673
2979.000000	8.788287
2978.000000	8.791001
2977.000000	8.794087
2976.000000	8.797568
2975.000000	8.801295
2974.000000	8.805099
2973.000000	8.808843
2972.000000	8.812383
2971.000000	8.815628
2970.000000	8.818680
2969.000000	8.821856
2968.000000	8.825476
2967.000000	8.829609
2966.000000	8.834040
2965.000000	8.838478
2964.000000	8.842766
2963.000000	8.846917
2962.000000	8.851016
2961.000000	8.855108
2960.000000	8.859172
2959.000000	8.863182
2958.000000	8.867221
2957.000000	8.871510
2956.000000	8.876276
2955.000000	8.881533
2954.000000	8.886958
2953.000000	8.892008
2952.000000	8.896260
2951.000000	8.899712
2950.000000	8.902799
2949.000000	8.906065
2948.000000	8.909792
2947.000000	8.913926
2946.000000	8.918321
2945.000000	8.922932
2944.000000	8.927736
2943.000000	8.932544
2942.000000	8.937072
2941.000000	8.941208
2940.000000	8.945130
2939.000000	8.949123
2938.000000	8.953330
2937.000000	8.957678
2936.000000	8.961999
2935.000000	8.966150
2934.000000	8.970075
2933.000000	8.973850
2932.000000	8.977653
2931.000000	8.981659
2930.000000	8.985918
2929.000000	8.990388
2928.000000	8.995054
2927.000000	8.999959
2926.000000	9.005084
2925.000000	9.010250
2924.000000	9.015229
2923.000000	9.019915
2922.000000	9.024312
2921.000000	9.028381
2920.000000	9.032032
2919.000000	9.035369
2918.000000	9.038813
2917.000000	9.042834
2916.000000	9.047539
2915.000000	9.052587
2914.000000	9.057499
2913.000000	9.061958
2912.000000	9.065868
2911.000000	9.069340
2910.000000	9.072728
2909.000000	9.076492
2908.000000	9.080815
2907.000000	9.085366
2906.000000	9.089576
2905.000000	9.093209
2904.000000	9.096573
2903.000000	9.100206
2902.000000	9.104403
2901.000000	9.109033
2900.000000	9.113708
2899.000000	9.118073
2898.000000	9.122009
2897.000000	9.125628
2896.000000	9.129109
2895.000000	9.132571
2894.000000	9.136103
2893.000000	9.139836
2892.000000	9.143857
2891.000000	9.148060
2890.000000	9.152186
2889.000000	9.156046
2888.000000	9.159678
2887.000000	9.163270
2886.000000	9.166987
2885.000000	9.170875
2884.000000	9.174846
2883.000000	9.178705
2882.000000	9.182230
2881.000000	9.185307
2880.000000	9.188014
2879.000000	9.190599
2878.000000	9.193383
2877.000000	9.196636
2876.000000	9.200438
2875.000000	9.204580
2874.000000	9.208632
2873.000000	9.212212
2872.000000	9.215226
2871.000000	9.217885
2870.000000	9.220517
2869.000000	9.223393
2868.000000	9.226641
2867.000000	9.230262
2866.000000	9.234175
2865.000000	9.238267
2864.000000	9.242418
2863.000000	9.246482
2862.000000	9.250261
2861.000000	9.253575
2860.000000	9.256422
2859.000000	9.259062
2858.000000	9.261863
2857.000000	9.264995
2856.000000	9.268279
2855.000000	9.271352
2854.000000	9.274011
2853.000000	9.276355
2852.000000	9.278656
2851.000000	9.281106
2850.000000	9.283721
2849.000000	9.286422
2848.000000	9.289185
2847.000000	9.292067
2846.000000	9.295071
2845.000000	9.298005
2844.000000	9.300575
2843.000000	9.302686
2842.000000	9.304590
2841.000000	9.306633
2840.000000	9.308887
2839.000000	9.311133
2838.000000	9.313188
2837.000000	9.315115
2836.000000	9.317083
2835.000000	9.319167
2834.000000	9.321327
2833.000000	9.323456
2832.000000	9.325397
2831.000000	9.327053
2830.000000	9.328562
2829.000000	9.330248
2828.000000	9.332284
2827.000000	9.334516
2826.000000	9.336730
2825.000000	9.338947
2824.000000	9.341304
2823.000000	9.343760
2822.000000	9.346143
2821.000000	9.348435
2820.000000	9.350749
2819.000000	9.353019
2818.000000	9.354971
2817.000000	9.356523
2816.000000	9.358012
2815.000000	9.359865
2814.000000	9.362124
2813.000000	9.364450
2812.000000	9.366523
2811.000000	9.368301
2810.000000	9.369907
2809.000000	9.371409
2808.000000	9.372814
2807.000000	9.374205
2806.000000	9.375770
2805.000000	9.377613
2804.000000	9.379583
2803.000000	9.381372
2802.000000	9.382821
2801.000000	9.384078
2800.000000	9.385382
2799.000000	9.386755
2798.000000	9.387975
2797.000000	9.388873
2796.000000	9.389584
2795.000000	9.390480
2794.000000	9.391880
2793.000000	9.393788
2792.000000	9.395867
2791.000000	9.397675
2790.000000	9.398993
2789.000000	9.399952
2788.000000	9.400882
2787.000000	9.402068
2786.000000	9.403641
2785.000000	9.405539
2784.000000	9.407466
2783.000000	9.408994
2782.000000	9.409865
2781.000000	9.410205
2780.000000	9.410354
2779.000000	9.410533
2778.000000	9.410793
2777.000000	9.411245
2776.000000	9.412118
2775.000000	9.413492
2774.000000	9.415111
2773.000000	9.416595
2772.000000	9.417798
2771.000000	9.418856
2770.000000	9.419927
2769.000000	9.420981
2768.000000	9.421893
2767.000000	9.422665
2766.000000	9.423446
2765.000000	9.424329
2764.000000	9.425230
2763.000000	9.426051
2762.000000	9.426895
2761.000000	9.427952
2760.000000	9.429176
2759.000000	9.430260
2758.000000	9.431018
2757.000000	9.431627
2756.000000	9.432348
2755.000000	9.433147
2754.000000	9.433791
2753.000000	9.434229
2752.000000	9.434636
2751.000000	9.435113
2750.000000	9.435562
2749.000000	9.435905
2748.000000	9.436244
2747.000000	9.436716
2746.000000	9.437311
2745.000000	9.437886
2744.000000	9.438263
2743.000000	9.438299
2742.000000	9.438014
2741.000000	9.437702
2740.000000	9.437780
2739.000000	9.438432
2738.000000	9.439454
2737.000000	9.440471
2736.000000	9.441217
2735.000000	9.441621
2734.000000	9.441752
2733.000000	9.441781
2732.000000	9.441886
2731.000000	9.442097
2730.000000	9.442289
2729.000000	9.442361
2728.000000	9.442384
2727.000000	9.442500
2726.000000	9.442749
2725.000000	9.443029
2724.000000	9.443198
2723.000000	9.443192
2722.000000	9.443098
2721.000000	9.443071
2720.000000	9.443147
2719.000000	9.443155
2718.000000	9.442919
2717.000000	9.442502
2716.000000	9.442119
2715.000000	9.441832
2714.000000	9.441522
2713.000000	9.441173
2712.000000	9.440957
2711.000000	9.440955
2710.000000	9.440998
2709.000000	9.440905
2708.000000	9.440718
2707.000000	9.440553
2706.000000	9.440348
2705.000000	9.439950
2704.000000	9.439384
2703.000000	9.438858
2702.000000	9.438510
2701.000000	9.438265
2700.000000	9.437946
2699.000000	9.437446
2698.000000	9.436820
2697.000000	9.436269
2696.000000	9.435977
2695.000000	9.435874
2694.000000	9.435613
2693.000000	9.434881
2692.000000	9.433700
2691.000000	9.432358
2690.000000	9.431112
2689.000000	9.430076
2688.000000	9.429324
2687.000000	9.428902
2686.000000	9.428712
2685.000000	9.428518
2684.000000	9.428148
2683.000000	9.427625
2682.000000	9.427054
2681.000000	9.426416
2680.000000	9.425524
2679.000000	9.424196
2678.000000	9.422467
2677.000000	9.420640
2676.000000	9.419092
2675.000000	9.417985
2674.000000	9.417170
2673.000000	9.416390
2672.000000	9.415541
2671.000000	9.414702
2670.000000	9.413963
2669.000000	9.413336
2668.000000	9.412800
2667.000000	9.412317
2666.000000	9.411747
2665.000000	9.410838
2664.000000	9.409428
2663.000000	9.407624
2662.000000	9.405735
2661.000000	9.403973
2660.000000	9.402282
2659.000000	9.400467
2658.000000	9.398445
2657.000000	9.396330
2656.000000	9.394312
2655.000000	9.392536
2654.000000	9.391063
2653.000000	9.389857
2652.000000	9.388743
2651.000000	9.387475
2650.000000	9.385901
2649.000000	9.384054
2648.000000	9.382063
2647.000000	9.380037
2646.000000	9.378053
2645.000000	9.376161
2644.000000	9.374345
2643.000000	9.372546
2642.000000	9.370785
2641.000000	9.369174
2640.000000	9.367707
2639.000000	9.366141
2638.000000	9.364239
2637.000000	9.362059
2636.000000	9.359858
2635.000000	9.357772
2634.000000	9.355772
2633.000000	9.353862
2632.000000	9.352087
2631.000000	9.350310
2630.000000	9.348262
2629.000000	9.345897
2628.000000	9.343529
2627.000000	9.341487
2626.000000	9.339772
2625.000000	9.338170
2624.000000	9.336516
2623.000000	9.334701
2622.000000	9.332579
2621.000000	9.330098
2620.000000	9.327498
2619.000000	9.325165
2618.000000	9.323258
2617.000000	9.321573
2616.000000	9.319788
2615.000000	9.317770
2614.000000	9.315635
2613.000000	9.313596
2612.000000	9.311759
2611.000000	9.310009
2610.000000	9.308078
2609.000000	9.305757
2608.000000	9.303061
2607.000000	9.300191
2606.000000	9.297388
2605.000000	9.294817
2604.000000	9.292521
2603.000000	9.290414
2602.000000	9.288335
2601.000000	9.286146
2600.000000	9.283756
2599.000000	9.281088
2598.000000	9.278120
2597.000000	9.275006
2596.000000	9.272054
2595.000000	9.269494
2594.000000	9.267308
2593.000000	9.265326
2592.000000	9.263405
2591.000000	9.261451
2590.000000	9.259345
2589.000000	9.256971
2588.000000	9.254326
2587.000000	9.251519
2586.000000	9.248655
2585.000000	9.245775
2584.000000	9.242900
2583.000000	9.240061
2582.000000	9.237259
2581.000000	9.234456
2580.000000	9.231615
2579.000000	9.228769
2578.000000	9.226031
2577.000000	9.223517
2576.000000	9.221189
2575.000000	9.218812
2574.000000	9.216133
2573.000000	9.213155
2572.000000	9.210174
2571.000000	9.207508
2570.000000	9.205206
2569.000000	9.203032
2568.000000	9.200658
2567.000000	9.197890
2566.000000	9.194757
2565.000000	9.191466
2564.000000	9.188214
2563.000000	9.185013
2562.000000	9.181727
2561.000000	9.178269
2560.000000	9.174728
2559.000000	9.171284
2558.000000	9.168064
2557.000000	9.165093
2556.000000	9.162292
2555.000000	9.159468
2554.000000	9.156403
2553.000000	9.153013
2552.000000	9.149419
2551.000000	9.145847
2550.000000	9.142475
2549.000000	9.139366
2548.000000	9.136458
2547.000000	9.133591
2546.000000	9.130632
2545.000000	9.127615
2544.000000	9.124656
2543.000000	9.121722
2542.000000	9.118551
2541.000000	9.114895
2540.000000	9.110785
2539.000000	9.106535
2538.000000	9.102508
2537.000000	9.098905
2536.000000	9.095683
2535.000000	9.092624
2534.000000	9.089510
2533.000000	9.086268
2532.000000	9.082936
2531.000000	9.079526
2530.000000	9.075997
2529.000000	9.072321
2528.000000	9.068464
2527.000000	9.064341
2526.000000	9.059974
2525.000000	9.055693
2524.000000	9.051958
2523.000000	9.048888
2522.000000	9.046154
2521.000000	9.043384
2520.000000	9.040483
2519.000000	9.037418
2518.000000	9.033977
2517.000000	9.029993
2516.000000	9.025692
2515.000000	9.021541
2514.000000	9.017795
2513.000000	9.014402
2512.000000	9.011267
2511.000000	9.008349
2510.000000	9.005479
2509.000000	9.002392
2508.000000	8.999047
2507.000000	8.995760
2506.000000	8.992866
2505.000000	8.990344
2504.000000	8.987840
2503.000000	8.985009
2502.000000	8.981768
2501.000000	8.978322
2500.000000	8.975015
2499.000000	8.972082
2498.000000	8.969479
2497.000000	8.966974
2496.000000	8.964436
2495.000000	8.961980
2494.000000	8.959790
2493.000000	8.957874
2492.000000	8.956060
2491.000000	8.954217
2490.000000	8.952370
2489.000000	8.950552
2488.000000	8.948645
2487.000000	8.946476
2486.000000	8.944111
2485.000000	8.941931
2484.000000	8.940298
2483.000000	8.939195
2482.000000	8.938292
2481.000000	8.937328
2480.000000	8.936266
2479.000000	8.935073
2478.000000	8.933592
2477.000000	8.931793
2476.000000	8.930011
2475.000000	8.928699
2474.000000	8.927930
2473.000000	8.927286
2472.000000	8.926272
2471.000000	8.924782
2470.000000	8.923161
2469.000000	8.921864
2468.000000	8.921033
2467.000000	8.920393
2466.000000	8.919583
2465.000000	8.918610
2464.000000	8.917866
2463.000000	8.917645
2462.000000	8.917747
2461.000000	8.917688
2460.000000	8.917181
2459.000000	8.916319
2458.000000	8.915385
2457.000000	8.914679
2456.000000	8.914459
2455.000000	8.914779
2454.000000	8.915363
2453.000000	8.915833
2452.000000	8.916137
2451.000000	8.916595
2450.000000	8.917454
2449.000000	8.918556
2448.000000	8.919539
2447.000000	8.920215
2446.000000	8.920657
2445.000000	8.921031
2444.000000	8.921498
2443.000000	8.922218
2442.000000	8.923307
2441.000000	8.924754
2440.000000	8.926423
2439.000000	8.928101
2438.000000	8.929539
2437.000000	8.930573
2436.000000	8.931346
2435.000000	8.932303
2434.000000	8.933802
2433.000000	8.935725
2432.000000	8.937623
2431.000000	8.939274
2430.000000	8.940920
2429.000000	8.942875
2428.000000	8.945038
2427.000000	8.946967
2426.000000	8.948405
2425.000000	8.949574
2424.000000	8.950901
2423.000000	8.952582
2422.000000	8.954478
2421.000000	8.956365
2420.000000	8.958149
2419.000000	8.959846
2418.000000	8.961457
2417.000000	8.962944
2416.000000	8.964304
2415.000000	8.965631
2414.000000	8.967061
2413.000000	8.968651
2412.000000	8.970325
2411.000000	8.971969
2410.000000	8.973578
2409.000000	8.975269
2408.000000	8.977138
2407.000000	8.979159
2406.000000	8.981269
2405.000000	8.983466
2404.000000	8.985749
2403.000000	8.987988
2402.000000	8.989937
2401.000000	8.991425
2400.000000	8.992504
2399.000000	8.993448
2398.000000	8.994615
2397.000000	8.996240
2396.000000	8.998250
2395.000000	9.000298
2394.000000	9.002052
2393.000000	9.003451
2392.000000	9.004625
2391.000000	9.005634
2390.000000	9.006418
2389.000000	9.006934
2388.000000	9.007165
2387.000000	9.006925
2386.000000	9.005753
2385.000000	9.002947
2384.000000	8.997546
2383.000000	8.988396
2382.000000	8.974747
2381.000000	8.957170
2380.000000	8.937863
2379.000000	8.919748
2378.000000	8.905073
2377.000000	8.894684
2376.000000	8.888249
2375.000000	8.884847
2374.000000	8.883446
2373.000000	8.883209
2372.000000	8.883687
2371.000000	8.884791
2370.000000	8.886591
2369.000000	8.889086
2368.000000	8.892043
2367.000000	8.894905
2366.000000	8.896845
2365.000000	8.897031
2364.000000	8.894941
2363.000000	8.890515
2362.000000	8.884122
2361.000000	8.876379
2360.000000	8.867856
2359.000000	8.858795
2358.000000	8.849134
2357.000000	8.838826
2356.000000	8.828065
2355.000000	8.817082
2354.000000	8.805833
2353.000000	8.794135
2352.000000	8.782292
2351.000000	8.771586
2350.000000	8.763959
2349.000000	8.760899
2348.000000	8.762237
2347.000000	8.765834
2346.000000	8.768613
2345.000000	8.768211
2344.000000	8.764029
2343.000000	8.757187
2342.000000	8.749955
2341.000000	8.745187
2340.000000	8.745480
2339.000000	8.751923
2338.000000	8.763309
2337.000000	8.776777
2336.000000	8.789463
2335.000000	8.799731
2334.000000	8.807202
2333.000000	8.812163
2332.000000	8.815128
2331.000000	8.816701
2330.000000	8.817496
2329.000000	8.818042
2328.000000	8.818713
2327.000000	8.819660
2326.000000	8.820765
2325.000000	8.821696
2324.000000	8.822081
2323.000000	8.821722
2322.000000	8.820763
2321.000000	8.819654
2320.000000	8.818790
2319.000000	8.818079
2318.000000	8.817009
2317.000000	8.815322
2316.000000	8.813480
2315.000000	8.812221
2314.000000	8.811760
2313.000000	8.811697
2312.000000	8.811668
2311.000000	8.811687
2310.000000	8.811754
2309.000000	8.811547
2308.000000	8.810828
2307.000000	8.809974
2306.000000	8.809730
2305.000000	8.810397
2304.000000	8.811494
2303.000000	8.812257
2302.000000	8.812319
2301.000000	8.811853
2300.000000	8.811210
2299.000000	8.810614
2298.000000	8.810183
2297.000000	8.810068
2296.000000	8.810360
2295.000000	8.810850
2294.000000	8.811089
2293.000000	8.810821
2292.000000	8.810298
2291.000000	8.810019
2290.000000	8.810218
2289.000000	8.810745
2288.000000	8.811282
2287.000000	8.811335
2286.000000	8.810046
2285.000000	8.806587
2284.000000	8.801192
2283.000000	8.795593
2282.000000	8.791961
2281.000000	8.791227
2280.000000	8.792551
2279.000000	8.794359
2278.000000	8.795646
2277.000000	8.796309
2276.000000	8.796639
2275.000000	8.796843
2274.000000	8.796968
2273.000000	8.797003
2272.000000	8.796930
2271.000000	8.796745
2270.000000	8.796485
2269.000000	8.796231
2268.000000	8.796082
2267.000000	8.796088
2266.000000	8.796176
2265.000000	8.796128
2264.000000	8.795744
2263.000000	8.795095
2262.000000	8.794538
2261.000000	8.794373
2260.000000	8.794522
2259.000000	8.794619
2258.000000	8.794428
2257.000000	8.794053
2256.000000	8.793728
2255.000000	8.793504
2254.000000	8.793235
2253.000000	8.792804
2252.000000	8.792277
2251.000000	8.791842
2250.000000	8.791640
2249.000000	8.791643
2248.000000	8.791626
2247.000000	8.791313
2246.000000	8.790611
2245.000000	8.789750
2244.000000	8.789111
2243.000000	8.788904
2242.000000	8.789024
2241.000000	8.789217
2240.000000	8.789308
2239.000000	8.789266
2238.000000	8.789094
2237.000000	8.788752
2236.000000	8.788207
2235.000000	8.787542
2234.000000	8.786991
2233.000000	8.786799
2232.000000	8.786994
2231.000000	8.787310
2230.000000	8.787383
2229.000000	8.787058
2228.000000	8.786480
2227.000000	8.785921
2226.000000	8.785563
2225.000000	8.785429
2224.000000	8.785451
2223.000000	8.785578
2222.000000	8.785831
2221.000000	8.786265
2220.000000	8.786830
2219.000000	8.787317
2218.000000	8.787516
2217.000000	8.787409
2216.000000	8.787142
2215.000000	8.786840
2214.000000	8.786565
2213.000000	8.786428
2212.000000	8.786547
2211.000000	8.786838
2210.000000	8.787010
2209.000000	8.786875
2208.000000	8.786583
2207.000000	8.786417
2206.000000	8.786461
2205.000000	8.786595
2204.000000	8.786762
2203.000000	8.787054
2202.000000	8.787536
2201.000000	8.788119
2200.000000	8.788673
2199.000000	8.789152
2198.000000	8.789564
2197.000000	8.789871
2196.000000	8.790007
2195.000000	8.790012
2194.000000	8.790075
2193.000000	8.790379
2192.000000	8.790892
2191.000000	8.791377
2190.000000	8.791663
2189.000000	8.791867
2188.000000	8.792230
2187.000000	8.792800
2186.000000	8.793397
2185.000000	8.793929
2184.000000	8.794540
2183.000000	8.795360
2182.000000	8.796243
2181.000000	8.796878
2180.000000	8.797098
2179.000000	8.797002
2178.000000	8.796862
2177.000000	8.797023
2176.000000	8.797758
2175.000000	8.799046
2174.000000	8.800496
2173.000000	8.801659
2172.000000	8.802433
2171.000000	8.803081
2170.000000	8.803888
2169.000000	8.804921
2168.000000	8.806071
2167.000000	8.807178
2166.000000	8.808099
2165.000000	8.808805
2164.000000	8.809464
2163.000000	8.810307
2162.000000	8.811384
2161.000000	8.812528
2160.000000	8.813591
2159.000000	8.814598
2158.000000	8.815620
2157.000000	8.816589
2156.000000	8.817364
2155.000000	8.817937
2154.000000	8.818517
2153.000000	8.819383
2152.000000	8.820668
2151.000000	8.822250
2150.000000	8.823850
2149.000000	8.825272
2148.000000	8.826551
2147.000000	8.827842
2146.000000	8.829191
2145.000000	8.830502
2144.000000	8.831728
2143.000000	8.833005
2142.000000	8.834524
2141.000000	8.836306
2140.000000	8.838167
2139.000000	8.839912
2138.000000	8.841514
2137.000000	8.843083
2136.000000	8.844717
2135.000000	8.846428
2134.000000	8.848227
2133.000000	8.850181
2132.000000	8.852298
2131.000000	8.854382
2130.000000	8.856123
2129.000000	8.857410
2128.000000	8.858510
2127.000000	8.859849
2126.000000	8.861630
2125.000000	8.863704
2124.000000	8.865771
2123.000000	8.867669
2122.000000	8.869485
2121.000000	8.871431
2120.000000	8.873625
2119.000000	8.875990
2118.000000	8.878389
2117.000000	8.880816
2116.000000	8.883375
2115.000000	8.886064
2114.000000	8.888686
2113.000000	8.891049
2112.000000	8.893170
2111.000000	8.895229
2110.000000	8.897379
2109.000000	8.899688
2108.000000	8.902178
2107.000000	8.904841
2106.000000	8.907604
2105.000000	8.910376
2104.000000	8.913085
2103.000000	8.915656
2102.000000	8.918001
2101.000000	8.920125
2100.000000	8.922186
2099.000000	8.924392
2098.000000	8.926875
2097.000000	8.929672
2096.000000	8.932742
2095.000000	8.935915
2094.000000	8.938929
2093.000000	8.941659
2092.000000	8.944249
2091.000000	8.946902
2090.000000	8.949605
2089.000000	8.952221
2088.000000	8.954792
2087.000000	8.957558
2086.000000	8.960629
2085.000000	8.963808
2084.000000	8.966828
2083.000000	8.969686
2082.000000	8.972627
2081.000000	8.975869
2080.000000	8.979376
2079.000000	8.982875
2078.000000	8.986036
2077.000000	8.988686
2076.000000	8.990943
2075.000000	8.993182
2074.000000	8.995853
2073.000000	8.999190
2072.000000	9.002995
2071.000000	9.006712
2070.000000	9.009883
2069.000000	9.012591
2068.000000	9.015367
2067.000000	9.018613
2066.000000	9.022225
2065.000000	9.025836
2064.000000	9.029257
2063.000000	9.032505
2062.000000	9.035556
2061.000000	9.038304
2060.000000	9.040796
2059.000000	9.043285
2058.000000	9.046024
2057.000000	9.049076
2056.000000	9.052342
2055.000000	9.055651
2054.000000	9.058824
2053.000000	9.061777
2052.000000	9.064572
2051.000000	9.067318
2050.000000	9.070049
2049.000000	9.072800
2048.000000	9.075726
2047.000000	9.078991
2046.000000	9.082523
2045.000000	9.086059
2044.000000	9.089436
2043.000000	9.092706
2042.000000	9.095917
2041.000000	9.098953
2040.000000	9.101660
2039.000000	9.104042
2038.000000	9.106258
2037.000000	9.108535
2036.000000	9.111097
2035.000000	9.114077
2034.000000	9.117386
2033.000000	9.120742
2032.000000	9.123901
2031.000000	9.126815
2030.000000	9.129565
2029.000000	9.132202
2028.000000	9.134717
2027.000000	9.137087
2026.000000	9.139309
2025.000000	9.141466
2024.000000	9.143763
2023.000000	9.146417
2022.000000	9.149427
2021.000000	9.152527
2020.000000	9.155439
2019.000000	9.158122
2018.000000	9.160714
2017.000000	9.163268
2016.000000	9.165654
2015.000000	9.167743
2014.000000	9.169630
2013.000000	9.171625
2012.000000	9.174001
2011.000000	9.176754
2010.000000	9.179637
2009.000000	9.182375
2008.000000	9.184803
2007.000000	9.186814
2006.000000	9.188352
2005.000000	9.189591
2004.000000	9.190982
2003.000000	9.192909
2002.000000	9.195260
2001.000000	9.197527
2000.000000	9.199353
1999.000000	9.200859
1998.000000	9.202377
1997.000000	9.204057
1996.000000	9.205882
1995.000000	9.207887
1994.000000	9.210141
1993.000000	9.212519
1992.000000	9.214711
1991.000000	9.216512
1990.000000	9.217997
1989.000000	9.219342
1988.000000	9.220582
1987.000000	9.221651
1986.000000	9.222622
1985.000000	9.223777
1984.000000	9.225410
1983.000000	9.227567
1982.000000	9.230004
1981.000000	9.232343
1980.000000	9.234264
1979.000000	9.235635
1978.000000	9.236543
1977.000000	9.237239
1976.000000	9.238005
1975.000000	9.238983
1974.000000	9.240085
1973.000000	9.241083
1972.000000	9.241863
1971.000000	9.242625
1970.000000	9.243769
1969.000000	9.245489
1968.000000	9.247478
1967.000000	9.249169
1966.000000	9.250294
1965.000000	9.251104
1964.000000	9.251978
1963.000000	9.252946
1962.000000	9.253723
1961.000000	9.254113
1960.000000	9.254222
1959.000000	9.254309
1958.000000	9.254584
1957.000000	9.255127
1956.000000	9.255873
1955.000000	9.256642
1954.000000	9.257293
1953.000000	9.257875
1952.000000	9.258561
1951.000000	9.259437
1950.000000	9.260434
1949.000000	9.261428
1948.000000	9.262310
1947.000000	9.263025
1946.000000	9.263626
1945.000000	9.264254
1944.000000	9.264924
1943.000000	9.265416
1942.000000	9.265534
1941.000000	9.265391
1940.000000	9.265248
1939.000000	9.265174
1938.000000	9.265101
1937.000000	9.265131
1936.000000	9.265455
1935.000000	9.265989
1934.000000	9.266405
1933.000000	9.266609
1932.000000	9.266844
1931.000000	9.267241
1930.000000	9.267568
1929.000000	9.267597
1928.000000	9.267468
1927.000000	9.267514
1926.000000	9.267892
1925.000000	9.268489
1924.000000	9.268994
1923.000000	9.269007
1922.000000	9.268380
1921.000000	9.267551
1920.000000	9.267211
1919.000000	9.267469
1918.000000	9.267673
1917.000000	9.267225
1916.000000	9.266282
1915.000000	9.265397
1914.000000	9.264828
1913.000000	9.264505
1912.000000	9.264357
1911.000000	9.264315
1910.000000	9.264162
1909.000000	9.263758
1908.000000	9.263254
1907.000000	9.262802
1906.000000	9.262238
1905.000000	9.261343
1904.000000	9.260268
1903.000000	9.259350
1902.000000	9.258656
1901.000000	9.258023
1900.000000	9.257421
1899.000000	9.256982
1898.000000	9.256742
1897.000000	9.256624
1896.000000	9.256555
1895.000000	9.256373
1894.000000	9.255839
1893.000000	9.255020
1892.000000	9.254391
1891.000000	9.254212
1890.000000	9.254010
1889.000000	9.253113
1888.000000	9.251529
1887.000000	9.249819
1886.000000	9.248278
1885.000000	9.246782
1884.000000	9.245386
1883.000000	9.244474
1882.000000	9.244183
1881.000000	9.244108
1880.000000	9.243746
1879.000000	9.242945
1878.000000	9.241849
1877.000000	9.240687
1876.000000	9.239648
1875.000000	9.238728
1874.000000	9.237748
1873.000000	9.236787
1872.000000	9.236404
1871.000000	9.236960
1870.000000	9.237798
1869.000000	9.237663
1868.000000	9.236032
1867.000000	9.233567
1866.000000	9.231177
1865.000000	9.229175
1864.000000	9.227502
1863.000000	9.226188
1862.000000	9.225211
1861.000000	9.224231
1860.000000	9.222854
1859.000000	9.221022
1858.000000	9.218967
1857.000000	9.216969
1856.000000	9.215233
1855.000000	9.213784
1854.000000	9.212400
1853.000000	9.210884
1852.000000	9.209447
1851.000000	9.208459
1850.000000	9.207818
1849.000000	9.207034
1848.000000	9.206124
1847.000000	9.205852
1846.000000	9.206608
1845.000000	9.207376
1844.000000	9.206427
1843.000000	9.203070
1842.000000	9.198346
1841.000000	9.193957
1840.000000	9.190812
1839.000000	9.188655
1838.000000	9.186775
1837.000000	9.184757
1836.000000	9.182588
1835.000000	9.180407
1834.000000	9.178472
1833.000000	9.177244
1832.000000	9.176979
1831.000000	9.177037
1830.000000	9.176084
1829.000000	9.173436
1828.000000	9.169900
1827.000000	9.166791
1826.000000	9.164344
1825.000000	9.161695
1824.000000	9.158265
1823.000000	9.154469
1822.000000	9.150996
1821.000000	9.148047
1820.000000	9.145483
1819.000000	9.143159
1818.000000	9.140837
1817.000000	9.138220
1816.000000	9.135356
1815.000000	9.132679
1814.000000	9.130428
1813.000000	9.128355
1812.000000	9.126135
1811.000000	9.123704
1810.000000	9.121068
1809.000000	9.118192
1808.000000	9.115238
1807.000000	9.112536
1806.000000	9.110155
1805.000000	9.107894
1804.000000	9.105782
1803.000000	9.104035
1802.000000	9.102390
1801.000000	9.100082
1800.000000	9.096781
1799.000000	9.093006
1798.000000	9.089362
1797.000000	9.086038
1796.000000	9.083392
1795.000000	9.082186
1794.000000	9.082420
1793.000000	9.082475
1792.000000	9.080355
1791.000000	9.075713
1790.000000	9.070031
1789.000000	9.064942
1788.000000	9.060977
1787.000000	9.057733
1786.000000	9.054554
1785.000000	9.051010
1784.000000	9.047199
1783.000000	9.043656
1782.000000	9.040691
1781.000000	9.037951
1780.000000	9.034882
1779.000000	9.031356
1778.000000	9.027590
1777.000000	9.023917
1776.000000	9.021081
1775.000000	9.020104
1774.000000	9.020856
1773.000000	9.021124
1772.000000	9.018345
1771.000000	9.012460
1770.000000	9.005943
1769.000000	9.000723
1768.000000	8.996171
1767.000000	8.990700
1766.000000	8.984459
1765.000000	8.979389
1764.000000	8.976810
1763.000000	8.975765
1762.000000	8.973925
1761.000000	8.969896
1760.000000	8.964497
1759.000000	8.959785
1758.000000	8.956799
1757.000000	8.954470
1756.000000	8.951123
1755.000000	8.946881
1754.000000	8.943750
1753.000000	8.943000
1752.000000	8.943249
1751.000000	8.941870
1750.000000	8.937852
1749.000000	8.932415
1748.000000	8.927113
1747.000000	8.922386
1746.000000	8.918045
1745.000000	8.914118
1744.000000	8.910780
1743.000000	8.908103
1742.000000	8.906212
1741.000000	8.904996
1740.000000	8.903408
1739.000000	8.900183
1738.000000	8.896133
1737.000000	8.894565
1736.000000	8.897741
1735.000000	8.903094
1734.000000	8.904723
1733.000000	8.899434
1732.000000	8.889950
1731.000000	8.881359
1730.000000	8.875982
1729.000000	8.872724
1728.000000	8.869957
1727.000000	8.867308
1726.000000	8.864971
1725.000000	8.862867
1724.000000	8.860886
1723.000000	8.859237
1722.000000	8.858544
1721.000000	8.859994
1720.000000	8.864666
1719.000000	8.871581
1718.000000	8.876902
1717.000000	8.876793
1716.000000	8.871291
1715.000000	8.863973
1714.000000	8.857886
1713.000000	8.853383
1712.000000	8.849840
1711.000000	8.847420
1710.000000	8.846421
1709.000000	8.846531
1708.000000	8.847593
1707.000000	8.849667
1706.000000	8.851640
1705.000000	8.851802
1704.000000	8.851092
1703.000000	8.853436
1702.000000	8.860534
1701.000000	8.867951
1700.000000	8.869605
1699.000000	8.865632
1698.000000	8.862061
1697.000000	8.862392
1696.000000	8.863101
1695.000000	8.858907
1694.000000	8.849955
1693.000000	8.841343
1692.000000	8.836988
1691.000000	8.836357
1690.000000	8.836774
1689.000000	8.837284
1688.000000	8.839728
1687.000000	8.846278
1686.000000	8.855812
1685.000000	8.862987
1684.000000	8.862286
1683.000000	8.853648
1682.000000	8.842757
1681.000000	8.835260
1680.000000	8.832258
1679.000000	8.831919
1678.000000	8.833373
1677.000000	8.836858
1676.000000	8.840916
1675.000000	8.842342
1674.000000	8.839878
1673.000000	8.836149
1672.000000	8.834671
1671.000000	8.835929
1670.000000	8.837366
1669.000000	8.836571
1668.000000	8.833544
1667.000000	8.830178
1666.000000	8.828472
1665.000000	8.829175
1664.000000	8.831259
1663.000000	8.832520
1662.000000	8.831379
1661.000000	8.828365
1660.000000	8.825394
1659.000000	8.823765
1658.000000	8.823847
1657.000000	8.826904
1656.000000	8.835460
1655.000000	8.849818
1654.000000	8.864356
1653.000000	8.869939
1652.000000	8.862364
1651.000000	8.847356
1650.000000	8.835362
1649.000000	8.832277
1648.000000	8.835923
1647.000000	8.839935
1646.000000	8.839666
1645.000000	8.834812
1644.000000	8.828180
1643.000000	8.823016
1642.000000	8.820846
1641.000000	8.821017
1640.000000	8.822394
1639.000000	8.825297
1638.000000	8.830731
1637.000000	8.837483
1636.000000	8.841483
1635.000000	8.839413
1634.000000	8.832420
1633.000000	8.825023
1632.000000	8.820790
1631.000000	8.820018
1630.000000	8.820972
1629.000000	8.822031
1628.000000	8.822540
1627.000000	8.822734
1626.000000	8.823400
1625.000000	8.825084
1624.000000	8.827145
1623.000000	8.827986
1622.000000	8.826812
1621.000000	8.825094
1620.000000	8.825735
1619.000000	8.830268
1618.000000	8.836706
1617.000000	8.840514
1616.000000	8.838443
1615.000000	8.831598
1614.000000	8.824279
1613.000000	8.819936
1612.000000	8.818783
1611.000000	8.819046
1610.000000	8.819402
1609.000000	8.819605
1608.000000	8.819591
1607.000000	8.819176
1606.000000	8.818566
1605.000000	8.818254
1604.000000	8.818302
1603.000000	8.818286
1602.000000	8.817982
1601.000000	8.817613
1600.000000	8.817392
1599.000000	8.817289
1598.000000	8.817297
1597.000000	8.817472
1596.000000	8.817655
1595.000000	8.817540
1594.000000	8.817147
1593.000000	8.816875
1592.000000	8.817002
1591.000000	8.817337
1590.000000	8.817476
1589.000000	8.817211
1588.000000	8.816702
1587.000000	8.816373
1586.000000	8.816566
1585.000000	8.817167
1584.000000	8.817637
1583.000000	8.817540
1582.000000	8.817020
1581.000000	8.816870
1580.000000	8.818419
1579.000000	8.822946
1578.000000	8.830126
1577.000000	8.836691
1576.000000	8.838026
1575.000000	8.832640
1574.000000	8.824520
1573.000000	8.819672
1572.000000	8.820490
1571.000000	8.824251
1570.000000	8.826678
1569.000000	8.825955
1568.000000	8.823272
1567.000000	8.820695
1566.000000	8.819320
1565.000000	8.819021
1564.000000	8.819649
1563.000000	8.822542
1562.000000	8.830130
1561.000000	8.842620
1560.000000	8.855157
1559.000000	8.860470
1558.000000	8.855851
1557.000000	8.845964
1556.000000	8.837473
1555.000000	8.832634
1554.000000	8.829368
1553.000000	8.825801
1552.000000	8.822449
1551.000000	8.820314
1550.000000	8.819218
1549.000000	8.818802
1548.000000	8.819675
1547.000000	8.822485
1546.000000	8.826623
1545.000000	8.830792
1544.000000	8.834645
1543.000000	8.839156
1542.000000	8.845105
1541.000000	8.851195
1540.000000	8.853889
1539.000000	8.850019
1538.000000	8.840386
1537.000000	8.830172
1536.000000	8.824719
1535.000000	8.824841
1534.000000	8.826779
1533.000000	8.826654
1532.000000	8.824088
1531.000000	8.821337
1530.000000	8.820307
1529.000000	8.821334
1528.000000	8.823730
1527.000000	8.826296
1526.000000	8.827939
1525.000000	8.828962
1524.000000	8.831206
1523.000000	8.835626
1522.000000	8.840047
1521.000000	8.840908
1520.000000	8.837490
1519.000000	8.832874
1518.000000	8.830160
1517.000000	8.829195
1516.000000	8.827916
1515.000000	8.825693
1514.000000	8.823831
1513.000000	8.823248
1512.000000	8.823434
1511.000000	8.824233
1510.000000	8.827272
1509.000000	8.834193
1508.000000	8.843500
1507.000000	8.850175
1506.000000	8.849457
1505.000000	8.841196
1504.000000	8.830001
1503.000000	8.821155
1502.000000	8.816861
1501.000000	8.816185
1500.000000	8.817564
