PE IR       SUBTECH     SPECTRUM    ASCII       PEDS        4.00        
   -1
TE108B1_005.ASC
20/02/21
14:35:46.00
20/02/21
14:35:46.00
Administrator
Sample 005 By Administrator Date Friday, February 21 2020
1500.000000
#HDR
-1
-1
#GR
cm-1
EGY
1.0
0.0
4000.000000
-1.000000
2501
8
9.669646
6.877673
#DATA
4000.000000	6.877673
3999.000000	6.881404
3998.000000	6.884891
3997.000000	6.888112
3996.000000	6.891190
3995.000000	6.894271
3994.000000	6.897417
3993.000000	6.900601
3992.000000	6.903791
3991.000000	6.907021
3990.000000	6.910398
3989.000000	6.914006
3988.000000	6.917797
3987.000000	6.921606
3986.000000	6.925280
3985.000000	6.928781
3984.000000	6.932167
3983.000000	6.935512
3982.000000	6.938910
3981.000000	6.942483
3980.000000	6.946333
3979.000000	6.950432
3978.000000	6.954607
3977.000000	6.958645
3976.000000	6.962435
3975.000000	6.966032
3974.000000	6.969613
3973.000000	6.973349
3972.000000	6.977291
3971.000000	6.981386
3970.000000	6.985592
3969.000000	6.989926
3968.000000	6.994349
3967.000000	6.998672
3966.000000	7.002663
3965.000000	7.006288
3964.000000	7.009813
3963.000000	7.013608
3962.000000	7.017848
3961.000000	7.022400
3960.000000	7.026984
3959.000000	7.031472
3958.000000	7.036009
3957.000000	7.040828
3956.000000	7.045940
3955.000000	7.051030
3954.000000	7.055681
3953.000000	7.059702
3952.000000	7.063266
3951.000000	7.066816
3950.000000	7.070830
3949.000000	7.075550
3948.000000	7.080785
3947.000000	7.086002
3946.000000	7.090729
3945.000000	7.094965
3944.000000	7.099174
3943.000000	7.103887
3942.000000	7.109317
3941.000000	7.115309
3940.000000	7.121527
3939.000000	7.127573
3938.000000	7.133040
3937.000000	7.137629
3936.000000	7.141388
3935.000000	7.144843
3934.000000	7.148780
3933.000000	7.153795
3932.000000	7.159941
3931.000000	7.166774
3930.000000	7.173669
3929.000000	7.180139
3928.000000	7.185962
3927.000000	7.191170
3926.000000	7.195998
3925.000000	7.200743
3924.000000	7.205560
3923.000000	7.210356
3922.000000	7.214935
3921.000000	7.219276
3920.000000	7.223693
3919.000000	7.228715
3918.000000	7.234783
3917.000000	7.241964
3916.000000	7.249884
3915.000000	7.257916
3914.000000	7.265467
3913.000000	7.272196
3912.000000	7.278061
3911.000000	7.283154
3910.000000	7.287424
3909.000000	7.290483
3908.000000	7.291818
3907.000000	7.291390
3906.000000	7.290089
3905.000000	7.289440
3904.000000	7.290745
3903.000000	7.294485
3902.000000	7.300521
3901.000000	7.308593
3900.000000	7.318436
3899.000000	7.329420
3898.000000	7.340299
3897.000000	7.349498
3896.000000	7.355853
3895.000000	7.359358
3894.000000	7.361367
3893.000000	7.363872
3892.000000	7.368105
3891.000000	7.373526
3890.000000	7.378282
3889.000000	7.380936
3888.000000	7.381961
3887.000000	7.383508
3886.000000	7.387559
3885.000000	7.394240
3884.000000	7.401935
3883.000000	7.409017
3882.000000	7.415337
3881.000000	7.421915
3880.000000	7.429396
3879.000000	7.437142
3878.000000	7.443890
3877.000000	7.448894
3876.000000	7.452084
3875.000000	7.453394
3874.000000	7.452627
3873.000000	7.450337
3872.000000	7.448503
3871.000000	7.449634
3870.000000	7.454844
3869.000000	7.462804
3868.000000	7.470855
3867.000000	7.477255
3866.000000	7.482416
3865.000000	7.488017
3864.000000	7.495223
3863.000000	7.503864
3862.000000	7.512941
3861.000000	7.521115
3860.000000	7.526353
3859.000000	7.525692
3858.000000	7.516685
3857.000000	7.500057
3856.000000	7.481113
3855.000000	7.467894
3854.000000	7.466986
3853.000000	7.479938
3852.000000	7.502843
3851.000000	7.529020
3850.000000	7.552561
3849.000000	7.570342
3848.000000	7.581871
3847.000000	7.588212
3846.000000	7.591070
3845.000000	7.592120
3844.000000	7.592219
3843.000000	7.590981
3842.000000	7.587497
3841.000000	7.581934
3840.000000	7.576472
3839.000000	7.574377
3838.000000	7.577889
3837.000000	7.586720
3836.000000	7.598454
3835.000000	7.610351
3834.000000	7.620969
3833.000000	7.630319
3832.000000	7.638800
3831.000000	7.646306
3830.000000	7.652450
3829.000000	7.657336
3828.000000	7.661511
3827.000000	7.664923
3826.000000	7.666328
3825.000000	7.664451
3824.000000	7.659989
3823.000000	7.655954
3822.000000	7.655337
3821.000000	7.658195
3820.000000	7.661562
3819.000000	7.662711
3818.000000	7.662375
3817.000000	7.664387
3816.000000	7.671999
3815.000000	7.684879
3814.000000	7.699519
3813.000000	7.711863
3812.000000	7.719278
3811.000000	7.720996
3810.000000	7.718171
3809.000000	7.713807
3808.000000	7.711392
3807.000000	7.712256
3806.000000	7.714327
3805.000000	7.714287
3804.000000	7.711377
3803.000000	7.708666
3802.000000	7.710316
3801.000000	7.717760
3800.000000	7.728696
3799.000000	7.739499
3798.000000	7.748125
3797.000000	7.754852
3796.000000	7.760879
3795.000000	7.766809
3794.000000	7.772419
3793.000000	7.777299
3792.000000	7.781311
3791.000000	7.784528
3790.000000	7.787064
3789.000000	7.789091
3788.000000	7.790883
3787.000000	7.792714
3786.000000	7.794663
3785.000000	7.796503
3784.000000	7.797769
3783.000000	7.798097
3782.000000	7.797694
3781.000000	7.797471
3780.000000	7.798509
3779.000000	7.801252
3778.000000	7.805256
3777.000000	7.809640
3776.000000	7.813562
3775.000000	7.816232
3774.000000	7.816963
3773.000000	7.815685
3772.000000	7.813407
3771.000000	7.811736
3770.000000	7.811755
3769.000000	7.813468
3768.000000	7.816319
3767.000000	7.819891
3766.000000	7.823887
3765.000000	7.827700
3764.000000	7.830433
3763.000000	7.831545
3762.000000	7.831382
3761.000000	7.831042
3760.000000	7.831626
3759.000000	7.833349
3758.000000	7.834985
3757.000000	7.834164
3756.000000	7.828632
3755.000000	7.817794
3754.000000	7.803581
3753.000000	7.790067
3752.000000	7.781768
3751.000000	7.781187
3750.000000	7.786716
3749.000000	7.792923
3748.000000	7.794239
3747.000000	7.789731
3746.000000	7.784558
3745.000000	7.786025
3744.000000	7.797561
3743.000000	7.816031
3742.000000	7.834345
3741.000000	7.846393
3740.000000	7.849996
3739.000000	7.846865
3738.000000	7.840788
3737.000000	7.835532
3736.000000	7.833385
3735.000000	7.834819
3734.000000	7.839342
3733.000000	7.846383
3732.000000	7.855160
3731.000000	7.864096
3730.000000	7.871152
3729.000000	7.875193
3728.000000	7.876766
3727.000000	7.877325
3726.000000	7.877912
3725.000000	7.878773
3724.000000	7.879923
3723.000000	7.881495
3722.000000	7.883484
3721.000000	7.885566
3720.000000	7.887397
3719.000000	7.888767
3718.000000	7.889124
3717.000000	7.887269
3716.000000	7.882115
3715.000000	7.873871
3714.000000	7.863902
3713.000000	7.853069
3712.000000	7.840820
3711.000000	7.826870
3710.000000	7.813752
3709.000000	7.806475
3708.000000	7.808489
3707.000000	7.818017
3706.000000	7.828953
3705.000000	7.835695
3704.000000	7.836881
3703.000000	7.834810
3702.000000	7.832226
3701.000000	7.830191
3700.000000	7.828404
3699.000000	7.826342
3698.000000	7.823636
3697.000000	7.819823
3696.000000	7.814282
3695.000000	7.806410
3694.000000	7.795680
3693.000000	7.781799
3692.000000	7.765373
3691.000000	7.748655
3690.000000	7.735198
3689.000000	7.727965
3688.000000	7.727337
3687.000000	7.730763
3686.000000	7.734382
3685.000000	7.735154
3684.000000	7.731851
3683.000000	7.724665
3682.000000	7.714096
3681.000000	7.700005
3680.000000	7.681678
3679.000000	7.659199
3678.000000	7.634994
3677.000000	7.613451
3676.000000	7.597927
3675.000000	7.587886
3674.000000	7.579429
3673.000000	7.569120
3672.000000	7.557140
3671.000000	7.546588
3670.000000	7.540095
3669.000000	7.537516
3668.000000	7.536462
3667.000000	7.534318
3666.000000	7.529632
3665.000000	7.522275
3664.000000	7.512898
3663.000000	7.502178
3662.000000	7.490219
3661.000000	7.476546
3660.000000	7.460880
3659.000000	7.444055
3658.000000	7.427981
3657.000000	7.414374
3656.000000	7.403214
3655.000000	7.392390
3654.000000	7.379119
3653.000000	7.362066
3652.000000	7.342543
3651.000000	7.323867
3650.000000	7.309501
3649.000000	7.301363
3648.000000	7.299097
3647.000000	7.300441
3646.000000	7.302330
3645.000000	7.302310
3644.000000	7.299443
3643.000000	7.294246
3642.000000	7.287816
3641.000000	7.280985
3640.000000	7.274057
3639.000000	7.267009
3638.000000	7.259751
3637.000000	7.252246
3636.000000	7.244407
3635.000000	7.235773
3634.000000	7.225309
3633.000000	7.211974
3632.000000	7.196061
3631.000000	7.180098
3630.000000	7.168005
3629.000000	7.162647
3628.000000	7.163906
3627.000000	7.168881
3626.000000	7.173844
3625.000000	7.176043
3624.000000	7.174283
3623.000000	7.168691
3622.000000	7.160545
3621.000000	7.152015
3620.000000	7.145331
3619.000000	7.141548
3618.000000	7.140015
3617.000000	7.139093
3616.000000	7.137446
3615.000000	7.134684
3614.000000	7.131024
3613.000000	7.126669
3612.000000	7.121765
3611.000000	7.116834
3610.000000	7.112948
3609.000000	7.111192
3608.000000	7.111920
3607.000000	7.114493
3606.000000	7.117582
3605.000000	7.119546
3604.000000	7.118800
3603.000000	7.114490
3602.000000	7.107332
3601.000000	7.099656
3600.000000	7.094061
3599.000000	7.091634
3598.000000	7.091500
3597.000000	7.092022
3596.000000	7.092284
3595.000000	7.092322
3594.000000	7.092273
3593.000000	7.091701
3592.000000	7.089850
3591.000000	7.086439
3590.000000	7.082135
3589.000000	7.078330
3588.000000	7.076379
3587.000000	7.076864
3586.000000	7.079329
3585.000000	7.082668
3584.000000	7.085766
3583.000000	7.087949
3582.000000	7.089038
3581.000000	7.089206
3580.000000	7.088797
3579.000000	7.088157
3578.000000	7.087504
3577.000000	7.086945
3576.000000	7.086580
3575.000000	7.086481
3574.000000	7.086470
3573.000000	7.085914
3572.000000	7.083952
3571.000000	7.080126
3570.000000	7.074980
3569.000000	7.070001
3568.000000	7.066862
3567.000000	7.066457
3566.000000	7.068462
3565.000000	7.071650
3564.000000	7.074650
3563.000000	7.076638
3562.000000	7.077583
3561.000000	7.078013
3560.000000	7.078470
3559.000000	7.079057
3558.000000	7.079397
3557.000000	7.079038
3556.000000	7.077907
3555.000000	7.076415
3554.000000	7.075161
3553.000000	7.074509
3552.000000	7.074347
3551.000000	7.074186
3550.000000	7.073499
3549.000000	7.072121
3548.000000	7.070416
3547.000000	7.069056
3546.000000	7.068565
3545.000000	7.068993
3544.000000	7.069945
3543.000000	7.070894
3542.000000	7.071460
3541.000000	7.071465
3540.000000	7.070873
3539.000000	7.069761
3538.000000	7.068355
3537.000000	7.066982
3536.000000	7.065883
3535.000000	7.065028
3534.000000	7.064123
3533.000000	7.062837
3532.000000	7.061045
3531.000000	7.058893
3530.000000	7.056661
3529.000000	7.054549
3528.000000	7.052575
3527.000000	7.050677
3526.000000	7.048876
3525.000000	7.047285
3524.000000	7.045948
3523.000000	7.044715
3522.000000	7.043336
3521.000000	7.041665
3520.000000	7.039727
3519.000000	7.037639
3518.000000	7.035536
3517.000000	7.033555
3516.000000	7.031756
3515.000000	7.030009
3514.000000	7.028039
3513.000000	7.025656
3512.000000	7.022946
3511.000000	7.020189
3510.000000	7.017602
3509.000000	7.015163
3508.000000	7.012636
3507.000000	7.009736
3506.000000	7.006322
3505.000000	7.002532
3504.000000	6.998738
3503.000000	6.995313
3502.000000	6.992393
3501.000000	6.989845
3500.000000	6.987431
3499.000000	6.984970
3498.000000	6.982364
3497.000000	6.979541
3496.000000	6.976477
3495.000000	6.973261
3494.000000	6.970077
3493.000000	6.967053
3492.000000	6.964125
3491.000000	6.961097
3490.000000	6.957863
3489.000000	6.954519
3488.000000	6.951229
3487.000000	6.948025
3486.000000	6.944832
3485.000000	6.941675
3484.000000	6.938761
3483.000000	6.936308
3482.000000	6.934330
3481.000000	6.932641
3480.000000	6.931056
3479.000000	6.929538
3478.000000	6.928156
3477.000000	6.926927
3476.000000	6.925710
3475.000000	6.924292
3474.000000	6.922604
3473.000000	6.920845
3472.000000	6.919351
3471.000000	6.918334
3470.000000	6.917781
3469.000000	6.917593
3468.000000	6.917699
3467.000000	6.917968
3466.000000	6.918108
3465.000000	6.917828
3464.000000	6.917100
3463.000000	6.916188
3462.000000	6.915381
3461.000000	6.914787
3460.000000	6.914383
3459.000000	6.914179
3458.000000	6.914211
3457.000000	6.914436
3456.000000	6.914690
3455.000000	6.914752
3454.000000	6.914443
3453.000000	6.913689
3452.000000	6.912570
3451.000000	6.911270
3450.000000	6.909960
3449.000000	6.908721
3448.000000	6.907617
3447.000000	6.906775
3446.000000	6.906319
3445.000000	6.906216
3444.000000	6.906310
3443.000000	6.906532
3442.000000	6.906996
3441.000000	6.907848
3440.000000	6.909105
3439.000000	6.910701
3438.000000	6.912633
3437.000000	6.914935
3436.000000	6.917556
3435.000000	6.920368
3434.000000	6.923335
3433.000000	6.926560
3432.000000	6.930137
3431.000000	6.934014
3430.000000	6.938051
3429.000000	6.942123
3428.000000	6.946109
3427.000000	6.949864
3426.000000	6.953323
3425.000000	6.956601
3424.000000	6.959891
3423.000000	6.963244
3422.000000	6.966533
3421.000000	6.969635
3420.000000	6.972567
3419.000000	6.975364
3418.000000	6.977915
3417.000000	6.980013
3416.000000	6.981601
3415.000000	6.982890
3414.000000	6.984195
3413.000000	6.985649
3412.000000	6.987109
3411.000000	6.988368
3410.000000	6.989402
3409.000000	6.990386
3408.000000	6.991479
3407.000000	6.992666
3406.000000	6.993846
3405.000000	6.995010
3404.000000	6.996252
3403.000000	6.997649
3402.000000	6.999181
3401.000000	7.000795
3400.000000	7.002499
3399.000000	7.004372
3398.000000	7.006514
3397.000000	7.008962
3396.000000	7.011586
3395.000000	7.014096
3394.000000	7.016232
3393.000000	7.017993
3392.000000	7.019633
3391.000000	7.021408
3390.000000	7.023365
3389.000000	7.025365
3388.000000	7.027234
3387.000000	7.028840
3386.000000	7.030162
3385.000000	7.031384
3384.000000	7.032868
3383.000000	7.034898
3382.000000	7.037397
3381.000000	7.039980
3380.000000	7.042276
3379.000000	7.044146
3378.000000	7.045631
3377.000000	7.046813
3376.000000	7.047814
3375.000000	7.048834
3374.000000	7.050047
3373.000000	7.051457
3372.000000	7.052893
3371.000000	7.054159
3370.000000	7.055179
3369.000000	7.056060
3368.000000	7.057055
3367.000000	7.058435
3366.000000	7.060313
3365.000000	7.062534
3364.000000	7.064756
3363.000000	7.066671
3362.000000	7.068185
3361.000000	7.069441
3360.000000	7.070717
3359.000000	7.072260
3358.000000	7.074102
3357.000000	7.075988
3356.000000	7.077539
3355.000000	7.078595
3354.000000	7.079396
3353.000000	7.080373
3352.000000	7.081739
3351.000000	7.083333
3350.000000	7.084860
3349.000000	7.086221
3348.000000	7.087549
3347.000000	7.088975
3346.000000	7.090446
3345.000000	7.091804
3344.000000	7.093012
3343.000000	7.094262
3342.000000	7.095820
3341.000000	7.097748
3340.000000	7.099773
3339.000000	7.101482
3338.000000	7.102682
3337.000000	7.103592
3336.000000	7.104644
3335.000000	7.106108
3334.000000	7.107907
3333.000000	7.109775
3332.000000	7.111520
3331.000000	7.113128
3330.000000	7.114688
3329.000000	7.116288
3328.000000	7.117939
3327.000000	7.119557
3326.000000	7.120987
3325.000000	7.122107
3324.000000	7.122952
3323.000000	7.123719
3322.000000	7.124633
3321.000000	7.125782
3320.000000	7.127067
3319.000000	7.128307
3318.000000	7.129416
3317.000000	7.130472
3316.000000	7.131617
3315.000000	7.132898
3314.000000	7.134239
3313.000000	7.135556
3312.000000	7.136832
3311.000000	7.138073
3310.000000	7.139243
3309.000000	7.140311
3308.000000	7.141316
3307.000000	7.142345
3306.000000	7.143440
3305.000000	7.144574
3304.000000	7.145680
3303.000000	7.146673
3302.000000	7.147479
3301.000000	7.148116
3300.000000	7.148745
3299.000000	7.149536
3298.000000	7.150475
3297.000000	7.151395
3296.000000	7.152208
3295.000000	7.153027
3294.000000	7.153995
3293.000000	7.155068
3292.000000	7.156080
3291.000000	7.156987
3290.000000	7.157954
3289.000000	7.159183
3288.000000	7.160692
3287.000000	7.162288
3286.000000	7.163712
3285.000000	7.164807
3284.000000	7.165568
3283.000000	7.166084
3282.000000	7.166485
3281.000000	7.166956
3280.000000	7.167738
3279.000000	7.169002
3278.000000	7.170694
3277.000000	7.172564
3276.000000	7.174397
3275.000000	7.176148
3274.000000	7.177827
3273.000000	7.179332
3272.000000	7.180487
3271.000000	7.181253
3270.000000	7.181839
3269.000000	7.182596
3268.000000	7.183829
3267.000000	7.185633
3266.000000	7.187810
3265.000000	7.189958
3264.000000	7.191705
3263.000000	7.192941
3262.000000	7.193830
3261.000000	7.194656
3260.000000	7.195664
3259.000000	7.196963
3258.000000	7.198496
3257.000000	7.200132
3256.000000	7.201824
3255.000000	7.203646
3254.000000	7.205593
3253.000000	7.207435
3252.000000	7.208916
3251.000000	7.210090
3250.000000	7.211309
3249.000000	7.212853
3248.000000	7.214711
3247.000000	7.216726
3246.000000	7.218792
3245.000000	7.220802
3244.000000	7.222558
3243.000000	7.223930
3242.000000	7.225059
3241.000000	7.226274
3240.000000	7.227762
3239.000000	7.229406
3238.000000	7.230941
3237.000000	7.232221
3236.000000	7.233348
3235.000000	7.234567
3234.000000	7.236068
3233.000000	7.237848
3232.000000	7.239763
3231.000000	7.241688
3230.000000	7.243553
3229.000000	7.245253
3228.000000	7.246654
3227.000000	7.247771
3226.000000	7.248866
3225.000000	7.250233
3224.000000	7.251913
3223.000000	7.253685
3222.000000	7.255340
3221.000000	7.256854
3220.000000	7.258319
3219.000000	7.259809
3218.000000	7.261369
3217.000000	7.263042
3216.000000	7.264865
3215.000000	7.266825
3214.000000	7.268854
3213.000000	7.270847
3212.000000	7.272709
3211.000000	7.274414
3210.000000	7.276055
3209.000000	7.277817
3208.000000	7.279870
3207.000000	7.282282
3206.000000	7.284985
3205.000000	7.287829
3204.000000	7.290711
3203.000000	7.293678
3202.000000	7.296872
3201.000000	7.300333
3200.000000	7.303898
3199.000000	7.307351
3198.000000	7.310632
3197.000000	7.313837
3196.000000	7.317032
3195.000000	7.320172
3194.000000	7.323201
3193.000000	7.326178
3192.000000	7.329239
3191.000000	7.332469
3190.000000	7.335818
3189.000000	7.339142
3188.000000	7.342337
3187.000000	7.345467
3186.000000	7.348728
3185.000000	7.352254
3184.000000	7.355949
3183.000000	7.359573
3182.000000	7.362972
3181.000000	7.366155
3180.000000	7.369155
3179.000000	7.371940
3178.000000	7.374526
3177.000000	7.377114
3176.000000	7.380001
3175.000000	7.383321
3174.000000	7.386916
3173.000000	7.390490
3172.000000	7.393884
3171.000000	7.397171
3170.000000	7.400511
3169.000000	7.403923
3168.000000	7.407241
3167.000000	7.410285
3166.000000	7.413048
3165.000000	7.415743
3164.000000	7.418665
3163.000000	7.421988
3162.000000	7.425619
3161.000000	7.429243
3160.000000	7.432567
3159.000000	7.435598
3158.000000	7.438654
3157.000000	7.442053
3156.000000	7.445788
3155.000000	7.449543
3154.000000	7.452999
3153.000000	7.456090
3152.000000	7.458980
3151.000000	7.461881
3150.000000	7.464920
3149.000000	7.468156
3148.000000	7.471654
3147.000000	7.475487
3146.000000	7.479577
3145.000000	7.483588
3144.000000	7.487101
3143.000000	7.489995
3142.000000	7.492579
3141.000000	7.495260
3140.000000	7.498138
3139.000000	7.501037
3138.000000	7.503866
3137.000000	7.506754
3136.000000	7.509772
3135.000000	7.512737
3134.000000	7.515411
3133.000000	7.517808
3132.000000	7.520178
3131.000000	7.522727
3130.000000	7.525475
3129.000000	7.528372
3128.000000	7.531397
3127.000000	7.534482
3126.000000	7.537419
3125.000000	7.539952
3124.000000	7.542001
3123.000000	7.543780
3122.000000	7.545679
3121.000000	7.548006
3120.000000	7.550797
3119.000000	7.553821
3118.000000	7.556762
3117.000000	7.559439
3116.000000	7.561905
3115.000000	7.564362
3114.000000	7.566938
3113.000000	7.569522
3112.000000	7.571844
3111.000000	7.573767
3110.000000	7.575486
3109.000000	7.577426
3108.000000	7.579928
3107.000000	7.583012
3106.000000	7.586395
3105.000000	7.589707
3104.000000	7.592738
3103.000000	7.595575
3102.000000	7.598484
3101.000000	7.601615
3100.000000	7.604830
3099.000000	7.607898
3098.000000	7.610837
3097.000000	7.613962
3096.000000	7.617559
3095.000000	7.621598
3094.000000	7.625777
3093.000000	7.629780
3092.000000	7.633451
3091.000000	7.636819
3090.000000	7.640034
3089.000000	7.643242
3088.000000	7.646422
3087.000000	7.649404
3086.000000	7.652135
3085.000000	7.654878
3084.000000	7.658023
3083.000000	7.661672
3082.000000	7.665504
3081.000000	7.669061
3080.000000	7.672109
3079.000000	7.674714
3078.000000	7.677095
3077.000000	7.679461
3076.000000	7.681908
3075.000000	7.684357
3074.000000	7.686629
3073.000000	7.688653
3072.000000	7.690590
3071.000000	7.692686
3070.000000	7.695002
3069.000000	7.697368
3068.000000	7.699594
3067.000000	7.701670
3066.000000	7.703773
3065.000000	7.706165
3064.000000	7.709071
3063.000000	7.712537
3062.000000	7.716329
3061.000000	7.720035
3060.000000	7.723382
3059.000000	7.726450
3058.000000	7.729566
3057.000000	7.733035
3056.000000	7.736986
3055.000000	7.741357
3054.000000	7.745891
3053.000000	7.750206
3052.000000	7.754058
3051.000000	7.757562
3050.000000	7.761073
3049.000000	7.764809
3048.000000	7.768656
3047.000000	7.772356
3046.000000	7.775747
3045.000000	7.778789
3044.000000	7.781484
3043.000000	7.783901
3042.000000	7.786201
3041.000000	7.788559
3040.000000	7.791065
3039.000000	7.793739
3038.000000	7.796551
3037.000000	7.799322
3036.000000	7.801673
3035.000000	7.803248
3034.000000	7.804020
3033.000000	7.804308
3032.000000	7.804462
3031.000000	7.804567
3030.000000	7.804426
3029.000000	7.803748
3028.000000	7.802304
3027.000000	7.800020
3026.000000	7.797017
3025.000000	7.793603
3024.000000	7.790155
3023.000000	7.786980
3022.000000	7.784302
3021.000000	7.782430
3020.000000	7.781942
3019.000000	7.783599
3018.000000	7.787968
3017.000000	7.795090
3016.000000	7.804573
3015.000000	7.815947
3014.000000	7.828828
3013.000000	7.842779
3012.000000	7.857218
3011.000000	7.871584
3010.000000	7.885467
3009.000000	7.898486
3008.000000	7.910180
3007.000000	7.920236
3006.000000	7.928768
3005.000000	7.936214
3004.000000	7.942925
3003.000000	7.949021
3002.000000	7.954596
3001.000000	7.959874
3000.000000	7.965043
2999.000000	7.970097
2998.000000	7.974946
2997.000000	7.979625
2996.000000	7.984258
2995.000000	7.988833
2994.000000	7.993144
2993.000000	7.997013
2992.000000	8.000532
2991.000000	8.003970
2990.000000	8.007405
2989.000000	8.010524
2988.000000	8.012928
2987.000000	8.014639
2986.000000	8.016120
2985.000000	8.017694
2984.000000	8.019092
2983.000000	8.019753
2982.000000	8.019493
2981.000000	8.018633
2980.000000	8.017467
2979.000000	8.015818
2978.000000	8.013223
2977.000000	8.009395
2976.000000	8.004377
2975.000000	7.998292
2974.000000	7.991045
2973.000000	7.982270
2972.000000	7.971613
2971.000000	7.959136
2970.000000	7.945463
2969.000000	7.931456
2968.000000	7.917766
2967.000000	7.904811
2966.000000	7.893121
2965.000000	7.883466
2964.000000	7.876500
2963.000000	7.872407
2962.000000	7.870950
2961.000000	7.871729
2960.000000	7.874320
2959.000000	7.878361
2958.000000	7.883683
2957.000000	7.890248
2956.000000	7.897782
2955.000000	7.905593
2954.000000	7.912969
2953.000000	7.919697
2952.000000	7.925951
2951.000000	7.931646
2950.000000	7.936087
2949.000000	7.938324
2948.000000	7.937712
2947.000000	7.934113
2946.000000	7.927694
2945.000000	7.918666
2944.000000	7.907131
2943.000000	7.893120
2942.000000	7.876805
2941.000000	7.858686
2940.000000	7.839535
2939.000000	7.820173
2938.000000	7.801321
2937.000000	7.783562
2936.000000	7.767215
2935.000000	7.752142
2934.000000	7.737828
2933.000000	7.723763
2932.000000	7.709750
2931.000000	7.695896
2930.000000	7.682567
2929.000000	7.670533
2928.000000	7.661022
2927.000000	7.655405
2926.000000	7.654793
2925.000000	7.659995
2924.000000	7.671722
2923.000000	7.690508
2922.000000	7.716289
2921.000000	7.748181
2920.000000	7.784778
2919.000000	7.824650
2918.000000	7.866518
2917.000000	7.909162
2916.000000	7.951360
2915.000000	7.992041
2914.000000	8.030452
2913.000000	8.066196
2912.000000	8.099142
2911.000000	8.129299
2910.000000	8.156723
2909.000000	8.181495
2908.000000	8.203782
2907.000000	8.223893
2906.000000	8.242285
2905.000000	8.259474
2904.000000	8.275907
2903.000000	8.291843
2902.000000	8.307311
2901.000000	8.322194
2900.000000	8.336410
2899.000000	8.350048
2898.000000	8.363353
2897.000000	8.376576
2896.000000	8.389795
2895.000000	8.402856
2894.000000	8.415524
2893.000000	8.427739
2892.000000	8.439700
2891.000000	8.451609
2890.000000	8.463341
2889.000000	8.474468
2888.000000	8.484668
2887.000000	8.493986
2886.000000	8.502627
2885.000000	8.510580
2884.000000	8.517606
2883.000000	8.523515
2882.000000	8.528284
2881.000000	8.531902
2880.000000	8.534297
2879.000000	8.535477
2878.000000	8.535574
2877.000000	8.534608
2876.000000	8.532324
2875.000000	8.528384
2874.000000	8.522669
2873.000000	8.515228
2872.000000	8.505931
2871.000000	8.494273
2870.000000	8.479606
2869.000000	8.461584
2868.000000	8.440487
2867.000000	8.417288
2866.000000	8.393485
2865.000000	8.370820
2864.000000	8.351026
2863.000000	8.335662
2862.000000	8.325975
2861.000000	8.322697
2860.000000	8.325876
2859.000000	8.334815
2858.000000	8.348170
2857.000000	8.364251
2856.000000	8.381566
2855.000000	8.399422
2854.000000	8.418094
2853.000000	8.438354
2852.000000	8.460794
2851.000000	8.485552
2850.000000	8.512486
2849.000000	8.541320
2848.000000	8.571515
2847.000000	8.602159
2846.000000	8.632161
2845.000000	8.660560
2844.000000	8.686683
2843.000000	8.710144
2842.000000	8.730878
2841.000000	8.749180
2840.000000	8.765573
2839.000000	8.780516
2838.000000	8.794233
2837.000000	8.806801
2836.000000	8.818386
2835.000000	8.829300
2834.000000	8.839796
2833.000000	8.849860
2832.000000	8.859278
2831.000000	8.867911
2830.000000	8.875859
2829.000000	8.883326
2828.000000	8.890443
2827.000000	8.897303
2826.000000	8.904068
2825.000000	8.910879
2824.000000	8.917663
2823.000000	8.924169
2822.000000	8.930248
2821.000000	8.936006
2820.000000	8.941645
2819.000000	8.947235
2818.000000	8.952688
2817.000000	8.957871
2816.000000	8.962693
2815.000000	8.967179
2814.000000	8.971508
2813.000000	8.975921
2812.000000	8.980495
2811.000000	8.985068
2810.000000	8.989430
2809.000000	8.993557
2808.000000	8.997580
2807.000000	9.001603
2806.000000	9.005636
2805.000000	9.009656
2804.000000	9.013638
2803.000000	9.017544
2802.000000	9.021342
2801.000000	9.025029
2800.000000	9.028574
2799.000000	9.031896
2798.000000	9.035011
2797.000000	9.038152
2796.000000	9.041562
2795.000000	9.045152
2794.000000	9.048541
2793.000000	9.051532
2792.000000	9.054456
2791.000000	9.057891
2790.000000	9.062093
2789.000000	9.066800
2788.000000	9.071576
2787.000000	9.076238
2786.000000	9.080922
2785.000000	9.085830
2784.000000	9.090982
2783.000000	9.096163
2782.000000	9.101061
2781.000000	9.105482
2780.000000	9.109518
2779.000000	9.113487
2778.000000	9.117659
2777.000000	9.121978
2776.000000	9.126133
2775.000000	9.129908
2774.000000	9.133418
2773.000000	9.136917
2772.000000	9.140464
2771.000000	9.143935
2770.000000	9.147327
2769.000000	9.150841
2768.000000	9.154540
2767.000000	9.158107
2766.000000	9.161179
2765.000000	9.163863
2764.000000	9.166689
2763.000000	9.169998
2762.000000	9.173548
2761.000000	9.176824
2760.000000	9.179585
2759.000000	9.182014
2758.000000	9.184432
2757.000000	9.187038
2756.000000	9.189843
2755.000000	9.192694
2754.000000	9.195332
2753.000000	9.197558
2752.000000	9.199420
2751.000000	9.201221
2750.000000	9.203286
2749.000000	9.205705
2748.000000	9.208263
2747.000000	9.210634
2746.000000	9.212674
2745.000000	9.214562
2744.000000	9.216600
2743.000000	9.218878
2742.000000	9.221203
2741.000000	9.223391
2740.000000	9.225514
2739.000000	9.227748
2738.000000	9.230074
2737.000000	9.232265
2736.000000	9.234158
2735.000000	9.235799
2734.000000	9.237344
2733.000000	9.238942
2732.000000	9.240711
2731.000000	9.242678
2730.000000	9.244705
2729.000000	9.246599
2728.000000	9.248325
2727.000000	9.250034
2726.000000	9.251815
2725.000000	9.253575
2724.000000	9.255217
2723.000000	9.256823
2722.000000	9.258525
2721.000000	9.260278
2720.000000	9.261856
2719.000000	9.263105
2718.000000	9.264115
2717.000000	9.265180
2716.000000	9.266567
2715.000000	9.268289
2714.000000	9.270068
2713.000000	9.271614
2712.000000	9.272943
2711.000000	9.274296
2710.000000	9.275727
2709.000000	9.276947
2708.000000	9.277708
2707.000000	9.278189
2706.000000	9.278796
2705.000000	9.279687
2704.000000	9.280728
2703.000000	9.281893
2702.000000	9.283416
2701.000000	9.285474
2700.000000	9.287879
2699.000000	9.290215
2698.000000	9.292185
2697.000000	9.293760
2696.000000	9.295109
2695.000000	9.296450
2694.000000	9.297910
2693.000000	9.299423
2692.000000	9.300808
2691.000000	9.301996
2690.000000	9.303116
2689.000000	9.304341
2688.000000	9.305734
2687.000000	9.307284
2686.000000	9.308966
2685.000000	9.310656
2684.000000	9.312095
2683.000000	9.313070
2682.000000	9.313627
2681.000000	9.314001
2680.000000	9.314348
2679.000000	9.314678
2678.000000	9.315026
2677.000000	9.315498
2676.000000	9.316099
2675.000000	9.316633
2674.000000	9.316938
2673.000000	9.317135
2672.000000	9.317513
2671.000000	9.318151
2670.000000	9.318816
2669.000000	9.319283
2668.000000	9.319636
2667.000000	9.320141
2666.000000	9.320847
2665.000000	9.321480
2664.000000	9.321748
2663.000000	9.321665
2662.000000	9.321516
2661.000000	9.321565
2660.000000	9.321833
2659.000000	9.322147
2658.000000	9.322311
2657.000000	9.322248
2656.000000	9.322024
2655.000000	9.321771
2654.000000	9.321606
2653.000000	9.321613
2652.000000	9.321856
2651.000000	9.322312
2650.000000	9.322798
2649.000000	9.323047
2648.000000	9.322947
2647.000000	9.322685
2646.000000	9.322596
2645.000000	9.322876
2644.000000	9.323433
2643.000000	9.323968
2642.000000	9.324167
2641.000000	9.323907
2640.000000	9.323339
2639.000000	9.322789
2638.000000	9.322498
2637.000000	9.322454
2636.000000	9.322469
2635.000000	9.322370
2634.000000	9.322113
2633.000000	9.321752
2632.000000	9.321363
2631.000000	9.320966
2630.000000	9.320494
2629.000000	9.319870
2628.000000	9.319119
2627.000000	9.318338
2626.000000	9.317552
2625.000000	9.316678
2624.000000	9.315696
2623.000000	9.314751
2622.000000	9.314000
2621.000000	9.313440
2620.000000	9.312942
2619.000000	9.312373
2618.000000	9.311616
2617.000000	9.310607
2616.000000	9.309491
2615.000000	9.308581
2614.000000	9.307962
2613.000000	9.307244
2612.000000	9.305959
2611.000000	9.304205
2610.000000	9.302628
2609.000000	9.301675
2608.000000	9.301094
2607.000000	9.300301
2606.000000	9.299048
2605.000000	9.297589
2604.000000	9.296248
2603.000000	9.295022
2602.000000	9.293617
2601.000000	9.291785
2600.000000	9.289592
2599.000000	9.287367
2598.000000	9.285381
2597.000000	9.283606
2596.000000	9.281825
2595.000000	9.279953
2594.000000	9.278137
2593.000000	9.276563
2592.000000	9.275269
2591.000000	9.274197
2590.000000	9.273330
2589.000000	9.272724
2588.000000	9.272441
2587.000000	9.272487
2586.000000	9.272774
2585.000000	9.273130
2584.000000	9.273395
2583.000000	9.273539
2582.000000	9.273673
2581.000000	9.273924
2580.000000	9.274308
2579.000000	9.274691
2578.000000	9.274856
2577.000000	9.274662
2576.000000	9.274173
2575.000000	9.273574
2574.000000	9.272925
2573.000000	9.272125
2572.000000	9.271184
2571.000000	9.270332
2570.000000	9.269713
2569.000000	9.269116
2568.000000	9.268257
2567.000000	9.267223
2566.000000	9.266317
2565.000000	9.265508
2564.000000	9.264351
2563.000000	9.262555
2562.000000	9.260346
2561.000000	9.258163
2560.000000	9.256212
2559.000000	9.254433
2558.000000	9.252690
2557.000000	9.250843
2556.000000	9.248800
2555.000000	9.246660
2554.000000	9.244665
2553.000000	9.242894
2552.000000	9.241149
2551.000000	9.239245
2550.000000	9.237249
2549.000000	9.235283
2548.000000	9.233265
2547.000000	9.231039
2546.000000	9.228626
2545.000000	9.226193
2544.000000	9.223884
2543.000000	9.221850
2542.000000	9.220267
2541.000000	9.219094
2540.000000	9.217869
2539.000000	9.216025
2538.000000	9.213442
2537.000000	9.210550
2536.000000	9.207870
2535.000000	9.205559
2534.000000	9.203390
2533.000000	9.201059
2532.000000	9.198494
2531.000000	9.195951
2530.000000	9.193738
2529.000000	9.191815
2528.000000	9.189766
2527.000000	9.187282
2526.000000	9.184556
2525.000000	9.182034
2524.000000	9.179840
2523.000000	9.177675
2522.000000	9.175255
2521.000000	9.172641
2520.000000	9.170069
2519.000000	9.167617
2518.000000	9.165146
2517.000000	9.162518
2516.000000	9.159788
2515.000000	9.157189
2514.000000	9.154903
2513.000000	9.152854
2512.000000	9.150784
2511.000000	9.148567
2510.000000	9.146346
2509.000000	9.144268
2508.000000	9.142217
2507.000000	9.139970
2506.000000	9.137551
2505.000000	9.135271
2504.000000	9.133404
2503.000000	9.131962
2502.000000	9.130779
2501.000000	9.129634
2500.000000	9.128280
2499.000000	9.126541
2498.000000	9.124481
2497.000000	9.122409
2496.000000	9.120623
2495.000000	9.119172
2494.000000	9.117903
2493.000000	9.116683
2492.000000	9.115552
2491.000000	9.114665
2490.000000	9.114097
2489.000000	9.113715
2488.000000	9.113273
2487.000000	9.112672
2486.000000	9.112066
2485.000000	9.111655
2484.000000	9.111411
2483.000000	9.111098
2482.000000	9.110531
2481.000000	9.109748
2480.000000	9.108963
2479.000000	9.108417
2478.000000	9.108243
2477.000000	9.108398
2476.000000	9.108701
2475.000000	9.108971
2474.000000	9.109102
2473.000000	9.109019
2472.000000	9.108675
2471.000000	9.108168
2470.000000	9.107764
2469.000000	9.107658
2468.000000	9.107770
2467.000000	9.107884
2466.000000	9.107919
2465.000000	9.107936
2464.000000	9.107937
2463.000000	9.107858
2462.000000	9.107753
2461.000000	9.107807
2460.000000	9.108122
2459.000000	9.108625
2458.000000	9.109246
2457.000000	9.110026
2456.000000	9.111008
2455.000000	9.112154
2454.000000	9.113452
2453.000000	9.114981
2452.000000	9.116741
2451.000000	9.118493
2450.000000	9.119912
2449.000000	9.120930
2448.000000	9.121878
2447.000000	9.123210
2446.000000	9.125091
2445.000000	9.127216
2444.000000	9.129082
2443.000000	9.130486
2442.000000	9.131766
2441.000000	9.133486
2440.000000	9.135865
2439.000000	9.138565
2438.000000	9.141054
2437.000000	9.143119
2436.000000	9.144985
2435.000000	9.147009
2434.000000	9.149341
2433.000000	9.151877
2432.000000	9.154449
2431.000000	9.156981
2430.000000	9.159442
2429.000000	9.161723
2428.000000	9.163688
2427.000000	9.165393
2426.000000	9.167150
2425.000000	9.169291
2424.000000	9.171855
2423.000000	9.174605
2422.000000	9.177319
2421.000000	9.179987
2420.000000	9.182697
2419.000000	9.185418
2418.000000	9.187965
2417.000000	9.190203
2416.000000	9.192246
2415.000000	9.194425
2414.000000	9.197010
2413.000000	9.199964
2412.000000	9.202985
2411.000000	9.205780
2410.000000	9.208229
2409.000000	9.210343
2408.000000	9.212226
2407.000000	9.214149
2406.000000	9.216505
2405.000000	9.219497
2404.000000	9.222884
2403.000000	9.226185
2402.000000	9.229106
2401.000000	9.231664
2400.000000	9.233971
2399.000000	9.236095
2398.000000	9.238181
2397.000000	9.240476
2396.000000	9.243082
2395.000000	9.245772
2394.000000	9.248178
2393.000000	9.250130
2392.000000	9.251721
2391.000000	9.253078
2390.000000	9.254188
2389.000000	9.254936
2388.000000	9.255210
2387.000000	9.254868
2386.000000	9.253499
2385.000000	9.250151
2384.000000	9.243304
2383.000000	9.231367
2382.000000	9.213564
2381.000000	9.190614
2380.000000	9.164614
2379.000000	9.138164
2378.000000	9.113329
2377.000000	9.091062
2376.000000	9.071210
2375.000000	9.052923
2374.000000	9.035222
2373.000000	9.017478
2372.000000	8.999616
2371.000000	8.981975
2370.000000	8.965029
2369.000000	8.949188
2368.000000	8.934730
2367.000000	8.921709
2366.000000	8.909877
2365.000000	8.898800
2364.000000	8.888230
2363.000000	8.878447
2362.000000	8.870241
2361.000000	8.864524
2360.000000	8.861882
2359.000000	8.862394
2358.000000	8.865768
2357.000000	8.871629
2356.000000	8.879736
2355.000000	8.889972
2354.000000	8.902162
2353.000000	8.915781
2352.000000	8.929661
2351.000000	8.941848
2350.000000	8.949919
2349.000000	8.951836
2348.000000	8.946851
2347.000000	8.935662
2346.000000	8.919732
2345.000000	8.900567
2344.000000	8.879662
2343.000000	8.858941
2342.000000	8.840913
2341.000000	8.828223
2340.000000	8.822844
2339.000000	8.825286
2338.000000	8.834198
2337.000000	8.846782
2336.000000	8.860037
2335.000000	8.872054
2334.000000	8.882382
2333.000000	8.891430
2332.000000	8.899744
2331.000000	8.907716
2330.000000	8.915595
2329.000000	8.923519
2328.000000	8.931595
2327.000000	8.940004
2326.000000	8.948867
2325.000000	8.957990
2324.000000	8.966922
2323.000000	8.975365
2322.000000	8.983393
2321.000000	8.991217
2320.000000	8.998872
2319.000000	9.006260
2318.000000	9.013331
2317.000000	9.020060
2316.000000	9.026344
2315.000000	9.032084
2314.000000	9.037318
2313.000000	9.042156
2312.000000	9.046633
2311.000000	9.050731
2310.000000	9.054489
2309.000000	9.057976
2308.000000	9.061221
2307.000000	9.064240
2306.000000	9.067064
2305.000000	9.069637
2304.000000	9.071791
2303.000000	9.073463
2302.000000	9.074908
2301.000000	9.076514
2300.000000	9.078413
2299.000000	9.080385
2298.000000	9.082123
2297.000000	9.083497
2296.000000	9.084540
2295.000000	9.085379
2294.000000	9.086242
2293.000000	9.087409
2292.000000	9.088986
2291.000000	9.090722
2290.000000	9.092215
2289.000000	9.093345
2288.000000	9.094316
2287.000000	9.095004
2286.000000	9.094382
2285.000000	9.091097
2284.000000	9.085092
2283.000000	9.078462
2282.000000	9.074154
2281.000000	9.073548
2280.000000	9.075479
2279.000000	9.077668
2278.000000	9.078781
2277.000000	9.078988
2276.000000	9.079024
2275.000000	9.079277
2274.000000	9.079693
2273.000000	9.080067
2272.000000	9.080187
2271.000000	9.079939
2270.000000	9.079458
2269.000000	9.079087
2268.000000	9.079070
2267.000000	9.079317
2266.000000	9.079532
2265.000000	9.079536
2264.000000	9.079417
2263.000000	9.079383
2262.000000	9.079494
2261.000000	9.079562
2260.000000	9.079324
2259.000000	9.078734
2258.000000	9.078037
2257.000000	9.077576
2256.000000	9.077588
2255.000000	9.078126
2254.000000	9.079006
2253.000000	9.079738
2252.000000	9.079742
2251.000000	9.078827
2250.000000	9.077469
2249.000000	9.076471
2248.000000	9.076349
2247.000000	9.077042
2246.000000	9.078113
2245.000000	9.079074
2244.000000	9.079652
2243.000000	9.079929
2242.000000	9.080277
2241.000000	9.081020
2240.000000	9.082126
2239.000000	9.083243
2238.000000	9.083998
2237.000000	9.084197
2236.000000	9.083866
2235.000000	9.083276
2234.000000	9.082896
2233.000000	9.083138
2232.000000	9.084056
2231.000000	9.085348
2230.000000	9.086638
2229.000000	9.087714
2228.000000	9.088545
2227.000000	9.089224
2226.000000	9.089872
2225.000000	9.090486
2224.000000	9.090863
2223.000000	9.090806
2222.000000	9.090443
2221.000000	9.090198
2220.000000	9.090404
2219.000000	9.091016
2218.000000	9.091774
2217.000000	9.092525
2216.000000	9.093274
2215.000000	9.093987
2214.000000	9.094517
2213.000000	9.094797
2212.000000	9.094993
2211.000000	9.095353
2210.000000	9.095917
2209.000000	9.096507
2208.000000	9.097019
2207.000000	9.097602
2206.000000	9.098406
2205.000000	9.099252
2204.000000	9.099762
2203.000000	9.099867
2202.000000	9.099979
2201.000000	9.100553
2200.000000	9.101568
2199.000000	9.102587
2198.000000	9.103231
2197.000000	9.103497
2196.000000	9.103642
2195.000000	9.103913
2194.000000	9.104403
2193.000000	9.105075
2192.000000	9.105879
2191.000000	9.106840
2190.000000	9.108012
2189.000000	9.109303
2188.000000	9.110415
2187.000000	9.111058
2186.000000	9.111246
2185.000000	9.111315
2184.000000	9.111623
2183.000000	9.112234
2182.000000	9.112917
2181.000000	9.113440
2180.000000	9.113832
2179.000000	9.114308
2178.000000	9.114955
2177.000000	9.115599
2176.000000	9.116049
2175.000000	9.116342
2174.000000	9.116597
2173.000000	9.116727
2172.000000	9.116566
2171.000000	9.116291
2170.000000	9.116478
2169.000000	9.117559
2168.000000	9.119370
2167.000000	9.121371
2166.000000	9.123172
2165.000000	9.124683
2164.000000	9.125907
2163.000000	9.126850
2162.000000	9.127649
2161.000000	9.128577
2160.000000	9.129811
2159.000000	9.131248
2158.000000	9.132621
2157.000000	9.133792
2156.000000	9.134906
2155.000000	9.136263
2154.000000	9.137991
2153.000000	9.139856
2152.000000	9.141445
2151.000000	9.142584
2150.000000	9.143522
2149.000000	9.144671
2148.000000	9.146219
2147.000000	9.148016
2146.000000	9.149758
2145.000000	9.151233
2144.000000	9.152458
2143.000000	9.153675
2142.000000	9.155178
2141.000000	9.157085
2140.000000	9.159270
2139.000000	9.161500
2138.000000	9.163579
2137.000000	9.165368
2136.000000	9.166801
2135.000000	9.167957
2134.000000	9.169067
2133.000000	9.170392
2132.000000	9.172100
2131.000000	9.174243
2130.000000	9.176737
2129.000000	9.179325
2128.000000	9.181687
2127.000000	9.183689
2126.000000	9.185495
2125.000000	9.187353
2124.000000	9.189323
2123.000000	9.191274
2122.000000	9.193101
2121.000000	9.194885
2120.000000	9.196846
2119.000000	9.199168
2118.000000	9.201844
2117.000000	9.204723
2116.000000	9.207699
2115.000000	9.210827
2114.000000	9.214159
2113.000000	9.217539
2112.000000	9.220692
2111.000000	9.223530
2110.000000	9.226251
2109.000000	9.229125
2108.000000	9.232248
2107.000000	9.235535
2106.000000	9.238808
2105.000000	9.241912
2104.000000	9.244846
2103.000000	9.247835
2102.000000	9.251160
2101.000000	9.254877
2100.000000	9.258752
2099.000000	9.262492
2098.000000	9.265942
2097.000000	9.269122
2096.000000	9.272171
2095.000000	9.275265
2094.000000	9.278467
2093.000000	9.281691
2092.000000	9.284941
2091.000000	9.288470
2090.000000	9.292497
2089.000000	9.296786
2088.000000	9.300804
2087.000000	9.304322
2086.000000	9.307645
2085.000000	9.311187
2084.000000	9.315060
2083.000000	9.319138
2082.000000	9.323298
2081.000000	9.327468
2080.000000	9.331634
2079.000000	9.335915
2078.000000	9.340454
2077.000000	9.345160
2076.000000	9.349720
2075.000000	9.353921
2074.000000	9.357791
2073.000000	9.361412
2072.000000	9.364869
2071.000000	9.368432
2070.000000	9.372424
2069.000000	9.376752
2068.000000	9.380904
2067.000000	9.384661
2066.000000	9.388550
2065.000000	9.393266
2064.000000	9.398790
2063.000000	9.404371
2062.000000	9.409284
2061.000000	9.413358
2060.000000	9.416876
2059.000000	9.420288
2058.000000	9.424008
2057.000000	9.428258
2056.000000	9.432960
2055.000000	9.437820
2054.000000	9.442522
2053.000000	9.446873
2052.000000	9.450896
2051.000000	9.454814
2050.000000	9.458816
2049.000000	9.462771
2048.000000	9.466363
2047.000000	9.469579
2046.000000	9.472862
2045.000000	9.476636
2044.000000	9.480846
2043.000000	9.485101
2042.000000	9.489099
2041.000000	9.492785
2040.000000	9.496277
2039.000000	9.499807
2038.000000	9.503565
2037.000000	9.507477
2036.000000	9.511305
2035.000000	9.515041
2034.000000	9.518906
2033.000000	9.522778
2032.000000	9.526008
2031.000000	9.528213
2030.000000	9.530031
2029.000000	9.532641
2028.000000	9.536535
2027.000000	9.541127
2026.000000	9.545540
2025.000000	9.549437
2024.000000	9.553031
2023.000000	9.556573
2022.000000	9.560043
2021.000000	9.563207
2020.000000	9.565896
2019.000000	9.568291
2018.000000	9.570905
2017.000000	9.574197
2016.000000	9.578178
2015.000000	9.582423
2014.000000	9.586413
2013.000000	9.589845
2012.000000	9.592768
2011.000000	9.595559
2010.000000	9.598630
2009.000000	9.602029
2008.000000	9.605401
2007.000000	9.608433
2006.000000	9.611200
2005.000000	9.613947
2004.000000	9.616745
2003.000000	9.619553
2002.000000	9.622433
2001.000000	9.625407
2000.000000	9.628203
1999.000000	9.630457
1998.000000	9.632148
1997.000000	9.633571
1996.000000	9.634879
1995.000000	9.635958
1994.000000	9.636848
1993.000000	9.638028
1992.000000	9.640037
1991.000000	9.642864
1990.000000	9.645867
1989.000000	9.648346
1988.000000	9.650159
1987.000000	9.651761
1986.000000	9.653625
1985.000000	9.655674
1984.000000	9.657352
1983.000000	9.658269
1982.000000	9.658656
1981.000000	9.659175
1980.000000	9.660330
1979.000000	9.662088
1978.000000	9.663950
1977.000000	9.665340
1976.000000	9.666053
1975.000000	9.666395
1974.000000	9.666840
1973.000000	9.667519
1972.000000	9.668128
1971.000000	9.668319
1970.000000	9.668043
1969.000000	9.667478
1968.000000	9.666805
1967.000000	9.666212
1966.000000	9.665993
1965.000000	9.666364
1964.000000	9.666986
1963.000000	9.666733
1962.000000	9.664297
1961.000000	9.659546
1960.000000	9.654412
1959.000000	9.651933
1958.000000	9.653851
1957.000000	9.659081
1956.000000	9.664719
1955.000000	9.668422
1954.000000	9.669646
1953.000000	9.669098
1952.000000	9.667779
1951.000000	9.666579
1950.000000	9.666042
1949.000000	9.666048
1948.000000	9.665962
1947.000000	9.665257
1946.000000	9.663823
1945.000000	9.661770
1944.000000	9.659441
1943.000000	9.657652
1942.000000	9.657311
1941.000000	9.658455
1940.000000	9.660033
1939.000000	9.660916
1938.000000	9.660812
1937.000000	9.660068
1936.000000	9.659012
1935.000000	9.657832
1934.000000	9.656733
1933.000000	9.655806
1932.000000	9.654905
1931.000000	9.653859
1930.000000	9.652679
1929.000000	9.651428
1928.000000	9.650070
1927.000000	9.648533
1926.000000	9.646726
1925.000000	9.644527
1924.000000	9.642026
1923.000000	9.639582
1922.000000	9.637205
1921.000000	9.634123
1920.000000	9.629794
1919.000000	9.625322
1918.000000	9.622860
1917.000000	9.623196
1916.000000	9.624719
1915.000000	9.625214
1914.000000	9.623922
1913.000000	9.621385
1912.000000	9.618187
1911.000000	9.614721
1910.000000	9.611576
1909.000000	9.609146
1908.000000	9.607059
1907.000000	9.604699
1906.000000	9.602073
1905.000000	9.599572
1904.000000	9.597172
1903.000000	9.594512
1902.000000	9.591541
1901.000000	9.588466
1900.000000	9.585223
1899.000000	9.581606
1898.000000	9.577821
1897.000000	9.574428
1896.000000	9.571792
1895.000000	9.569870
1894.000000	9.568275
1893.000000	9.566277
1892.000000	9.563221
1891.000000	9.559468
1890.000000	9.556481
1889.000000	9.555393
1888.000000	9.555767
1887.000000	9.556297
1886.000000	9.556275
1885.000000	9.555759
1884.000000	9.554740
1883.000000	9.553039
1882.000000	9.550850
1881.000000	9.548651
1880.000000	9.546623
1879.000000	9.544701
1878.000000	9.542970
1877.000000	9.541471
1876.000000	9.539830
1875.000000	9.537612
1874.000000	9.534658
1873.000000	9.530529
1872.000000	9.524286
1871.000000	9.515905
1870.000000	9.507627
1869.000000	9.502645
1868.000000	9.502209
1867.000000	9.504720
1866.000000	9.507588
1865.000000	9.509154
1864.000000	9.508932
1863.000000	9.507147
1862.000000	9.504538
1861.000000	9.501913
1860.000000	9.499494
1859.000000	9.497008
1858.000000	9.494362
1857.000000	9.491699
1856.000000	9.488897
1855.000000	9.485709
1854.000000	9.482352
1853.000000	9.479246
1852.000000	9.476214
1851.000000	9.472683
1850.000000	9.468482
1849.000000	9.463403
1848.000000	9.456096
1847.000000	9.445023
1846.000000	9.431368
1845.000000	9.419899
1844.000000	9.415484
1843.000000	9.418676
1842.000000	9.425271
1841.000000	9.430057
1840.000000	9.430565
1839.000000	9.427526
1838.000000	9.422798
1837.000000	9.417576
1836.000000	9.412270
1835.000000	9.406980
1834.000000	9.401236
1833.000000	9.393790
1832.000000	9.383961
1831.000000	9.373480
1830.000000	9.365724
1829.000000	9.362157
1828.000000	9.360465
1827.000000	9.357314
1826.000000	9.352288
1825.000000	9.347726
1824.000000	9.345146
1823.000000	9.343452
1822.000000	9.340744
1821.000000	9.336390
1820.000000	9.330867
1819.000000	9.324820
1818.000000	9.318941
1817.000000	9.313821
1816.000000	9.309204
1815.000000	9.303930
1814.000000	9.297113
1813.000000	9.289005
1812.000000	9.280557
1811.000000	9.272677
1810.000000	9.265967
1809.000000	9.260469
1808.000000	9.255368
1807.000000	9.249507
1806.000000	9.242303
1805.000000	9.233774
1804.000000	9.223911
1803.000000	9.212944
1802.000000	9.202133
1801.000000	9.193246
1800.000000	9.186942
1799.000000	9.182303
1798.000000	9.177722
1797.000000	9.171280
1796.000000	9.160687
1795.000000	9.144893
1794.000000	9.126571
1793.000000	9.111514
1792.000000	9.104169
1791.000000	9.103985
1790.000000	9.106348
1789.000000	9.106293
1788.000000	9.101205
1787.000000	9.091529
1786.000000	9.080081
1785.000000	9.069926
1784.000000	9.061952
1783.000000	9.054733
1782.000000	9.046925
1781.000000	9.038848
1780.000000	9.031364
1779.000000	9.024335
1778.000000	9.016729
1777.000000	9.006993
1776.000000	8.992869
1775.000000	8.972943
1774.000000	8.950053
1773.000000	8.931482
1772.000000	8.923109
1771.000000	8.923573
1770.000000	8.926134
1769.000000	8.926065
1768.000000	8.924099
1767.000000	8.922481
1766.000000	8.920158
1765.000000	8.913664
1764.000000	8.901797
1763.000000	8.887803
1762.000000	8.876555
1761.000000	8.869974
1760.000000	8.865431
1759.000000	8.858821
1758.000000	8.849131
1757.000000	8.839136
1756.000000	8.831014
1755.000000	8.822368
1754.000000	8.808448
1753.000000	8.788359
1752.000000	8.767296
1751.000000	8.751800
1750.000000	8.743897
1749.000000	8.740588
1748.000000	8.737728
1747.000000	8.732996
1746.000000	8.725934
1745.000000	8.716887
1744.000000	8.706231
1743.000000	8.693861
1742.000000	8.679694
1741.000000	8.665467
1740.000000	8.654832
1739.000000	8.649077
1738.000000	8.642644
1737.000000	8.626436
1736.000000	8.598463
1735.000000	8.569595
1734.000000	8.555265
1733.000000	8.561024
1732.000000	8.578344
1731.000000	8.594450
1730.000000	8.603298
1729.000000	8.606297
1728.000000	8.606177
1727.000000	8.603725
1726.000000	8.599290
1725.000000	8.594111
1724.000000	8.589230
1723.000000	8.584038
1722.000000	8.575777
1721.000000	8.560380
1720.000000	8.535937
1719.000000	8.507287
1718.000000	8.485441
1717.000000	8.479305
1716.000000	8.487879
1715.000000	8.502331
1714.000000	8.514720
1713.000000	8.522326
1712.000000	8.524997
1711.000000	8.522686
1710.000000	8.516323
1709.000000	8.507687
1708.000000	8.497454
1707.000000	8.485994
1706.000000	8.475796
1705.000000	8.468633
1704.000000	8.459698
1703.000000	8.440643
1702.000000	8.411979
1701.000000	8.387176
1700.000000	8.378633
1699.000000	8.382742
1698.000000	8.385481
1697.000000	8.381594
1696.000000	8.380982
1695.000000	8.394410
1694.000000	8.418850
1693.000000	8.440774
1692.000000	8.450668
1691.000000	8.450101
1690.000000	8.445402
1689.000000	8.437855
1688.000000	8.422012
1687.000000	8.393881
1686.000000	8.360196
1685.000000	8.337265
1684.000000	8.337876
1683.000000	8.359303
1682.000000	8.386252
1681.000000	8.405088
1680.000000	8.412402
1679.000000	8.410603
1678.000000	8.401216
1677.000000	8.386209
1676.000000	8.371935
1675.000000	8.365569
1674.000000	8.367112
1673.000000	8.368769
1672.000000	8.363716
1671.000000	8.353423
1670.000000	8.345318
1669.000000	8.344938
1668.000000	8.351302
1667.000000	8.358367
1666.000000	8.359703
1665.000000	8.353009
1664.000000	8.341872
1663.000000	8.332981
1662.000000	8.330381
1661.000000	8.332339
1660.000000	8.334154
1659.000000	8.332535
1658.000000	8.325010
1657.000000	8.306232
1656.000000	8.270287
1655.000000	8.220847
1654.000000	8.176722
1653.000000	8.160738
1652.000000	8.179453
1651.000000	8.215473
1650.000000	8.242132
1649.000000	8.245504
1648.000000	8.232058
1647.000000	8.218102
1646.000000	8.214993
1645.000000	8.223008
1644.000000	8.234747
1643.000000	8.242234
1642.000000	8.242244
1641.000000	8.236356
1640.000000	8.226195
1639.000000	8.210043
1638.000000	8.186331
1637.000000	8.159980
1636.000000	8.141781
1635.000000	8.139291
1634.000000	8.149487
1633.000000	8.161676
1632.000000	8.166594
1631.000000	8.161843
1630.000000	8.150434
1629.000000	8.136618
1628.000000	8.122892
1627.000000	8.108869
1626.000000	8.092257
1625.000000	8.071826
1624.000000	8.049788
1623.000000	8.030321
1622.000000	8.014901
1621.000000	7.999476
1620.000000	7.977442
1619.000000	7.946507
1618.000000	7.912712
1617.000000	7.886468
1616.000000	7.873229
1615.000000	7.867944
1614.000000	7.859513
1613.000000	7.840732
1612.000000	7.813376
1611.000000	7.784481
1610.000000	7.759962
1609.000000	7.742399
1608.000000	7.732507
1607.000000	7.730053
1606.000000	7.733513
1605.000000	7.740584
1604.000000	7.749591
1603.000000	7.759826
1602.000000	7.770701
1601.000000	7.781418
1600.000000	7.791511
1599.000000	7.800939
1598.000000	7.809514
1597.000000	7.816770
1596.000000	7.822511
1595.000000	7.827073
1594.000000	7.830895
1593.000000	7.834114
1592.000000	7.836555
1591.000000	7.837875
1590.000000	7.837740
1589.000000	7.836108
1588.000000	7.833367
1587.000000	7.830081
1586.000000	7.826621
1585.000000	7.823122
1584.000000	7.819775
1583.000000	7.817086
1582.000000	7.815430
1581.000000	7.813514
1580.000000	7.807285
1579.000000	7.792409
1578.000000	7.770143
1577.000000	7.750211
1576.000000	7.744494
1575.000000	7.755728
1574.000000	7.773569
1573.000000	7.783548
1572.000000	7.779652
1571.000000	7.767539
1570.000000	7.756869
1569.000000	7.752418
1568.000000	7.751978
1567.000000	7.750494
1566.000000	7.744931
1565.000000	7.735257
1564.000000	7.720878
1563.000000	7.697344
1562.000000	7.659864
1561.000000	7.612525
1560.000000	7.571737
1559.000000	7.555622
1558.000000	7.568325
1557.000000	7.597039
1556.000000	7.625278
1555.000000	7.646487
1554.000000	7.663825
1553.000000	7.680842
1552.000000	7.696813
1551.000000	7.709962
1550.000000	7.720619
1549.000000	7.729618
1548.000000	7.736047
1547.000000	7.738401
1546.000000	7.736795
1545.000000	7.732519
1544.000000	7.725808
1543.000000	7.715633
1542.000000	7.702841
1541.000000	7.693511
1540.000000	7.697506
1539.000000	7.720845
1538.000000	7.758044
1537.000000	7.793827
1536.000000	7.815096
1535.000000	7.821600
1534.000000	7.823680
1533.000000	7.830416
1532.000000	7.842015
1531.000000	7.852846
1530.000000	7.858240
1529.000000	7.857187
1528.000000	7.851457
1527.000000	7.844362
1526.000000	7.838381
1525.000000	7.831965
1524.000000	7.820605
1523.000000	7.803669
1522.000000	7.788383
1521.000000	7.783358
1520.000000	7.788521
1519.000000	7.794911
1518.000000	7.794869
1517.000000	7.789072
1516.000000	7.782418
1515.000000	7.776679
1514.000000	7.770154
1513.000000	7.762144
1512.000000	7.753375
1511.000000	7.741745
1510.000000	7.721418
1509.000000	7.689041
1508.000000	7.650226
1507.000000	7.617509
1506.000000	7.599948
1505.000000	7.593910
1504.000000	7.583936
1503.000000	7.552767
1502.000000	7.490944
1501.000000	7.398307
1500.000000	7.279740
