PE IR       SUBTECH     SPECTRUM    ASCII       PEDS        4.00        
   -1
TE108B1_013.ASC
20/02/21
15:09:45.00
20/02/21
15:09:45.00
Administrator
Sample 013 By Administrator Date Friday, February 21 2020
1500.000000
#HDR
-1
-1
#GR
cm-1
EGY
1.0
0.0
4000.000000
-1.000000
2501
8
9.619659
6.776211
#DATA
4000.000000	6.776211
3999.000000	6.778732
3998.000000	6.780711
3997.000000	6.782748
3996.000000	6.785588
3995.000000	6.789403
3994.000000	6.793645
3993.000000	6.797628
3992.000000	6.801166
3991.000000	6.804573
3990.000000	6.808206
3989.000000	6.812144
3988.000000	6.816245
3987.000000	6.820299
3986.000000	6.824075
3985.000000	6.827374
3984.000000	6.830193
3983.000000	6.832807
3982.000000	6.835617
3981.000000	6.838833
3980.000000	6.842335
3979.000000	6.845811
3978.000000	6.849068
3977.000000	6.852214
3976.000000	6.855598
3975.000000	6.859560
3974.000000	6.864178
3973.000000	6.869184
3972.000000	6.874093
3971.000000	6.878520
3970.000000	6.882462
3969.000000	6.886279
3968.000000	6.890335
3967.000000	6.894639
3966.000000	6.898888
3965.000000	6.902892
3964.000000	6.906880
3963.000000	6.911337
3962.000000	6.916578
3961.000000	6.922496
3960.000000	6.928640
3959.000000	6.934471
3958.000000	6.939600
3957.000000	6.943914
3956.000000	6.947582
3955.000000	6.950926
3954.000000	6.954262
3953.000000	6.957828
3952.000000	6.961784
3951.000000	6.966166
3950.000000	6.970758
3949.000000	6.975067
3948.000000	6.978561
3947.000000	6.981084
3946.000000	6.983154
3945.000000	6.985785
3944.000000	6.989903
3943.000000	6.995815
3942.000000	7.003166
3941.000000	7.011353
3940.000000	7.019837
3939.000000	7.028033
3938.000000	7.035112
3937.000000	7.040233
3936.000000	7.043182
3935.000000	7.044775
3934.000000	7.046486
3933.000000	7.049605
3932.000000	7.054580
3931.000000	7.061005
3930.000000	7.068050
3929.000000	7.074918
3928.000000	7.081128
3927.000000	7.086627
3926.000000	7.091771
3925.000000	7.097087
3924.000000	7.102887
3923.000000	7.108981
3922.000000	7.114795
3921.000000	7.119815
3920.000000	7.123996
3919.000000	7.127811
3918.000000	7.131976
3917.000000	7.137100
3916.000000	7.143407
3915.000000	7.150601
3914.000000	7.157958
3913.000000	7.164741
3912.000000	7.170709
3911.000000	7.176192
3910.000000	7.181534
3909.000000	7.186398
3908.000000	7.189811
3907.000000	7.191070
3906.000000	7.190631
3905.000000	7.190036
3904.000000	7.190941
3903.000000	7.194203
3902.000000	7.199772
3901.000000	7.207185
3900.000000	7.215992
3899.000000	7.225755
3898.000000	7.235775
3897.000000	7.244900
3896.000000	7.251769
3895.000000	7.255613
3894.000000	7.257124
3893.000000	7.258428
3892.000000	7.261722
3891.000000	7.267522
3890.000000	7.274277
3889.000000	7.279883
3888.000000	7.283668
3887.000000	7.286803
3886.000000	7.290853
3885.000000	7.296200
3884.000000	7.302065
3883.000000	7.307803
3882.000000	7.313708
3881.000000	7.320344
3880.000000	7.327462
3879.000000	7.334050
3878.000000	7.339435
3877.000000	7.343882
3876.000000	7.347804
3875.000000	7.350683
3874.000000	7.351362
3873.000000	7.349667
3872.000000	7.347465
3871.000000	7.347651
3870.000000	7.351874
3869.000000	7.359228
3868.000000	7.367250
3867.000000	7.374138
3866.000000	7.380030
3865.000000	7.386310
3864.000000	7.394011
3863.000000	7.402953
3862.000000	7.411989
3861.000000	7.419415
3860.000000	7.423002
3859.000000	7.420275
3858.000000	7.409925
3857.000000	7.393677
3856.000000	7.376825
3855.000000	7.366238
3854.000000	7.366951
3853.000000	7.379683
3852.000000	7.400988
3851.000000	7.425541
3850.000000	7.448636
3849.000000	7.467281
3848.000000	7.480016
3847.000000	7.486726
3846.000000	7.488745
3845.000000	7.488472
3844.000000	7.487881
3843.000000	7.487110
3842.000000	7.484792
3841.000000	7.480157
3840.000000	7.474797
3839.000000	7.472089
3838.000000	7.474747
3837.000000	7.482768
3836.000000	7.493681
3835.000000	7.504652
3834.000000	7.514419
3833.000000	7.523388
3832.000000	7.532202
3831.000000	7.540554
3830.000000	7.547507
3829.000000	7.552692
3828.000000	7.556656
3827.000000	7.559811
3826.000000	7.561416
3825.000000	7.560271
3824.000000	7.556642
3823.000000	7.552981
3822.000000	7.552052
3821.000000	7.554182
3820.000000	7.556919
3819.000000	7.557896
3818.000000	7.557817
3817.000000	7.560137
3816.000000	7.567644
3815.000000	7.579785
3814.000000	7.593263
3813.000000	7.604593
3812.000000	7.611702
3811.000000	7.613923
3810.000000	7.611895
3809.000000	7.607842
3808.000000	7.604818
3807.000000	7.604442
3806.000000	7.605413
3805.000000	7.605039
3804.000000	7.602499
3803.000000	7.600121
3802.000000	7.601172
3801.000000	7.606785
3800.000000	7.615362
3799.000000	7.624639
3798.000000	7.633593
3797.000000	7.642339
3796.000000	7.650895
3795.000000	7.658704
3794.000000	7.665214
3793.000000	7.670316
3792.000000	7.674015
3791.000000	7.676123
3790.000000	7.676702
3789.000000	7.676645
3788.000000	7.677330
3787.000000	7.679495
3786.000000	7.682567
3785.000000	7.685215
3784.000000	7.686474
3783.000000	7.686448
3782.000000	7.686150
3781.000000	7.686794
3780.000000	7.688987
3779.000000	7.692322
3778.000000	7.695758
3777.000000	7.698546
3776.000000	7.700760
3775.000000	7.702835
3774.000000	7.704739
3773.000000	7.705911
3772.000000	7.706009
3771.000000	7.705431
3770.000000	7.704962
3769.000000	7.705122
3768.000000	7.706070
3767.000000	7.707919
3766.000000	7.710745
3765.000000	7.714127
3764.000000	7.716975
3763.000000	7.718191
3762.000000	7.717681
3761.000000	7.716673
3760.000000	7.716765
3759.000000	7.718367
3758.000000	7.719915
3757.000000	7.718730
3756.000000	7.712902
3755.000000	7.702632
3754.000000	7.690183
3753.000000	7.678939
3752.000000	7.672202
3751.000000	7.671756
3750.000000	7.676263
3749.000000	7.681160
3748.000000	7.681634
3747.000000	7.677063
3746.000000	7.672557
3745.000000	7.675163
3744.000000	7.687922
3743.000000	7.707302
3742.000000	7.725987
3741.000000	7.737867
3740.000000	7.740875
3739.000000	7.736817
3738.000000	7.729557
3737.000000	7.722933
3736.000000	7.719272
3735.000000	7.719098
3734.000000	7.722129
3733.000000	7.728197
3732.000000	7.736822
3731.000000	7.746254
3730.000000	7.753876
3729.000000	7.758114
3728.000000	7.759635
3727.000000	7.760334
3726.000000	7.761376
3725.000000	7.762533
3724.000000	7.763217
3723.000000	7.763557
3722.000000	7.764263
3721.000000	7.765722
3720.000000	7.767489
3719.000000	7.768534
3718.000000	7.767759
3717.000000	7.764366
3716.000000	7.758114
3715.000000	7.749597
3714.000000	7.740352
3713.000000	7.732476
3712.000000	7.727792
3711.000000	7.727076
3710.000000	7.729829
3709.000000	7.734584
3708.000000	7.739409
3707.000000	7.742407
3706.000000	7.742256
3705.000000	7.738748
3704.000000	7.732943
3703.000000	7.726636
3702.000000	7.721406
3701.000000	7.717848
3700.000000	7.715429
3699.000000	7.712953
3698.000000	7.709227
3697.000000	7.703599
3696.000000	7.696025
3695.000000	7.686654
3694.000000	7.675278
3693.000000	7.661367
3692.000000	7.645027
3691.000000	7.628086
3690.000000	7.613953
3689.000000	7.605711
3688.000000	7.603954
3687.000000	7.606262
3686.000000	7.608755
3685.000000	7.608285
3684.000000	7.603602
3683.000000	7.595163
3682.000000	7.584053
3681.000000	7.570687
3680.000000	7.554298
3679.000000	7.534055
3678.000000	7.511152
3677.000000	7.489354
3676.000000	7.472479
3675.000000	7.461095
3674.000000	7.452178
3673.000000	7.442435
3672.000000	7.431580
3671.000000	7.422034
3670.000000	7.415858
3669.000000	7.412665
3668.000000	7.410321
3667.000000	7.406877
3666.000000	7.401541
3665.000000	7.394319
3664.000000	7.385385
3663.000000	7.374798
3662.000000	7.362500
3661.000000	7.348422
3660.000000	7.332786
3659.000000	7.316483
3658.000000	7.301051
3657.000000	7.287918
3656.000000	7.277245
3655.000000	7.267311
3654.000000	7.255329
3653.000000	7.239428
3652.000000	7.220399
3651.000000	7.201664
3650.000000	7.187347
3649.000000	7.179873
3648.000000	7.178745
3647.000000	7.181137
3646.000000	7.183648
3645.000000	7.184030
3644.000000	7.181843
3643.000000	7.177887
3642.000000	7.173095
3641.000000	7.167791
3640.000000	7.161704
3639.000000	7.154469
3638.000000	7.146173
3637.000000	7.137548
3636.000000	7.129506
3635.000000	7.122146
3634.000000	7.114150
3633.000000	7.103661
3632.000000	7.090308
3631.000000	7.076412
3630.000000	7.065897
3629.000000	7.061621
3628.000000	7.063560
3627.000000	7.069094
3626.000000	7.074638
3625.000000	7.077129
3624.000000	7.074934
3623.000000	7.068333
3622.000000	7.059428
3621.000000	7.051118
3620.000000	7.045525
3619.000000	7.042932
3618.000000	7.042006
3617.000000	7.040919
3616.000000	7.038462
3615.000000	7.034457
3614.000000	7.029469
3613.000000	7.024245
3612.000000	7.019376
3611.000000	7.015399
3610.000000	7.012996
3609.000000	7.012819
3608.000000	7.014963
3607.000000	7.018598
3606.000000	7.022213
3605.000000	7.024329
3604.000000	7.024221
3603.000000	7.022232
3602.000000	7.019554
3601.000000	7.017484
3600.000000	7.016546
3599.000000	7.016104
3598.000000	7.014971
3597.000000	7.012529
3596.000000	7.009328
3595.000000	7.006497
3594.000000	7.004563
3593.000000	7.002946
3592.000000	7.000629
3591.000000	6.997263
3590.000000	6.993530
3589.000000	6.990567
3588.000000	6.989172
3587.000000	6.989511
3586.000000	6.991236
3585.000000	6.993669
3584.000000	6.996020
3583.000000	6.997737
3582.000000	6.998716
3581.000000	6.999101
3580.000000	6.998907
3579.000000	6.998025
3578.000000	6.996613
3577.000000	6.995246
3576.000000	6.994558
3575.000000	6.994710
3574.000000	6.995254
3573.000000	6.995353
3572.000000	6.994178
3571.000000	6.991376
3570.000000	6.987441
3569.000000	6.983593
3568.000000	6.981078
3567.000000	6.980446
3566.000000	6.981472
3565.000000	6.983578
3564.000000	6.986166
3563.000000	6.988611
3562.000000	6.990276
3561.000000	6.990765
3560.000000	6.990173
3559.000000	6.989007
3558.000000	6.987805
3557.000000	6.986785
3556.000000	6.985801
3555.000000	6.984692
3554.000000	6.983659
3553.000000	6.983222
3552.000000	6.983656
3551.000000	6.984531
3550.000000	6.984968
3549.000000	6.984389
3548.000000	6.982930
3547.000000	6.981147
3546.000000	6.979482
3545.000000	6.978055
3544.000000	6.976803
3543.000000	6.975646
3542.000000	6.974584
3541.000000	6.973742
3540.000000	6.973275
3539.000000	6.973155
3538.000000	6.973076
3537.000000	6.972683
3536.000000	6.971858
3535.000000	6.970738
3534.000000	6.969478
3533.000000	6.968106
3532.000000	6.966574
3531.000000	6.964809
3530.000000	6.962714
3529.000000	6.960244
3528.000000	6.957581
3527.000000	6.955104
3526.000000	6.953051
3525.000000	6.951237
3524.000000	6.949284
3523.000000	6.947144
3522.000000	6.945265
3521.000000	6.944075
3520.000000	6.943322
3519.000000	6.942049
3518.000000	6.939327
3517.000000	6.935020
3516.000000	6.929902
3515.000000	6.925081
3514.000000	6.921315
3513.000000	6.918688
3512.000000	6.916767
3511.000000	6.915004
3510.000000	6.913078
3509.000000	6.910929
3508.000000	6.908553
3507.000000	6.905824
3506.000000	6.902580
3505.000000	6.898835
3504.000000	6.894830
3503.000000	6.890845
3502.000000	6.887046
3501.000000	6.883530
3500.000000	6.880457
3499.000000	6.877980
3498.000000	6.875996
3497.000000	6.874046
3496.000000	6.871567
3495.000000	6.868297
3494.000000	6.864395
3493.000000	6.860147
3492.000000	6.855668
3491.000000	6.850977
3490.000000	6.846307
3489.000000	6.842120
3488.000000	6.838746
3487.000000	6.836120
3486.000000	6.833973
3485.000000	6.832142
3484.000000	6.830569
3483.000000	6.829094
3482.000000	6.827430
3481.000000	6.825313
3480.000000	6.822531
3479.000000	6.818890
3478.000000	6.814447
3477.000000	6.809840
3476.000000	6.806091
3475.000000	6.803862
3474.000000	6.803006
3473.000000	6.802928
3472.000000	6.803217
3471.000000	6.803645
3470.000000	6.803733
3469.000000	6.802759
3468.000000	6.800456
3467.000000	6.797527
3466.000000	6.795257
3465.000000	6.794515
3464.000000	6.795110
3463.000000	6.796030
3462.000000	6.796248
3461.000000	6.795378
3460.000000	6.793740
3459.000000	6.791938
3458.000000	6.790466
3457.000000	6.789636
3456.000000	6.789633
3455.000000	6.790374
3454.000000	6.791300
3453.000000	6.791525
3452.000000	6.790423
3451.000000	6.788114
3450.000000	6.785373
3449.000000	6.783057
3448.000000	6.781593
3447.000000	6.780870
3446.000000	6.780522
3445.000000	6.780342
3444.000000	6.780482
3443.000000	6.781218
3442.000000	6.782489
3441.000000	6.783767
3440.000000	6.784560
3439.000000	6.785071
3438.000000	6.786218
3437.000000	6.788893
3436.000000	6.793156
3435.000000	6.798126
3434.000000	6.802614
3433.000000	6.805951
3432.000000	6.808347
3431.000000	6.810579
3430.000000	6.813298
3429.000000	6.816579
3428.000000	6.820066
3427.000000	6.823441
3426.000000	6.826692
3425.000000	6.829988
3424.000000	6.833477
3423.000000	6.837204
3422.000000	6.841062
3421.000000	6.844686
3420.000000	6.847555
3419.000000	6.849399
3418.000000	6.850503
3417.000000	6.851466
3416.000000	6.852650
3415.000000	6.854005
3414.000000	6.855432
3413.000000	6.857096
3412.000000	6.859236
3411.000000	6.861780
3410.000000	6.864302
3409.000000	6.866339
3408.000000	6.867661
3407.000000	6.868325
3406.000000	6.868650
3405.000000	6.869164
3404.000000	6.870347
3403.000000	6.872273
3402.000000	6.874521
3401.000000	6.876512
3400.000000	6.877947
3399.000000	6.878951
3398.000000	6.879910
3397.000000	6.881239
3396.000000	6.883191
3395.000000	6.885694
3394.000000	6.888366
3393.000000	6.890801
3392.000000	6.892952
3391.000000	6.895185
3390.000000	6.897941
3389.000000	6.901313
3388.000000	6.904928
3387.000000	6.908196
3386.000000	6.910694
3385.000000	6.912424
3384.000000	6.913755
3383.000000	6.915116
3382.000000	6.916685
3381.000000	6.918324
3380.000000	6.919724
3379.000000	6.920616
3378.000000	6.920971
3377.000000	6.921125
3376.000000	6.921669
3375.000000	6.923010
3374.000000	6.924973
3373.000000	6.926925
3372.000000	6.928373
3371.000000	6.929384
3370.000000	6.930411
3369.000000	6.931822
3368.000000	6.933639
3367.000000	6.935569
3366.000000	6.937136
3365.000000	6.937917
3364.000000	6.937913
3363.000000	6.937764
3362.000000	6.938435
3361.000000	6.940504
3360.000000	6.943684
3359.000000	6.947028
3358.000000	6.949666
3357.000000	6.951431
3356.000000	6.952817
3355.000000	6.954306
3354.000000	6.955764
3353.000000	6.956665
3352.000000	6.956940
3351.000000	6.957347
3350.000000	6.958791
3349.000000	6.961385
3348.000000	6.964399
3347.000000	6.967041
3346.000000	6.968997
3345.000000	6.970223
3344.000000	6.970630
3343.000000	6.970289
3342.000000	6.969817
3341.000000	6.970245
3340.000000	6.972325
3339.000000	6.975906
3338.000000	6.979953
3337.000000	6.983226
3336.000000	6.985089
3335.000000	6.985793
3334.000000	6.986040
3333.000000	6.986376
3332.000000	6.987046
3331.000000	6.988209
3330.000000	6.989959
3329.000000	6.992094
3328.000000	6.994128
3327.000000	6.995686
3326.000000	6.996755
3325.000000	6.997534
3324.000000	6.998257
3323.000000	6.999244
3322.000000	7.000853
3321.000000	7.003095
3320.000000	7.005431
3319.000000	7.007159
3318.000000	7.007985
3317.000000	7.008152
3316.000000	7.008190
3315.000000	7.008720
3314.000000	7.010269
3313.000000	7.012814
3312.000000	7.015447
3311.000000	7.016833
3310.000000	7.016364
3309.000000	7.014856
3308.000000	7.013971
3307.000000	7.014772
3306.000000	7.016736
3305.000000	7.018200
3304.000000	7.017974
3303.000000	7.016616
3302.000000	7.016023
3301.000000	7.017630
3300.000000	7.021086
3299.000000	7.024791
3298.000000	7.027448
3297.000000	7.028865
3296.000000	7.029479
3295.000000	7.029668
3294.000000	7.029678
3293.000000	7.029808
3292.000000	7.030345
3291.000000	7.031423
3290.000000	7.033086
3289.000000	7.035323
3288.000000	7.037901
3287.000000	7.040316
3286.000000	7.042134
3285.000000	7.043333
3284.000000	7.044160
3283.000000	7.044787
3282.000000	7.045339
3281.000000	7.046196
3280.000000	7.047910
3279.000000	7.050608
3278.000000	7.053583
3277.000000	7.055715
3276.000000	7.056393
3275.000000	7.056023
3274.000000	7.055615
3273.000000	7.055899
3272.000000	7.056858
3271.000000	7.058037
3270.000000	7.059134
3269.000000	7.060170
3268.000000	7.061208
3267.000000	7.062215
3266.000000	7.063278
3265.000000	7.064715
3264.000000	7.066677
3263.000000	7.068762
3262.000000	7.070341
3261.000000	7.071379
3260.000000	7.072647
3259.000000	7.074868
3258.000000	7.077748
3257.000000	7.080155
3256.000000	7.081284
3255.000000	7.081456
3254.000000	7.081703
3253.000000	7.082785
3252.000000	7.084750
3251.000000	7.087225
3250.000000	7.089802
3249.000000	7.092143
3248.000000	7.094022
3247.000000	7.095447
3246.000000	7.096621
3245.000000	7.097697
3244.000000	7.098700
3243.000000	7.099790
3242.000000	7.101415
3241.000000	7.103943
3240.000000	7.107136
3239.000000	7.110167
3238.000000	7.112281
3237.000000	7.113383
3236.000000	7.113995
3235.000000	7.114731
3234.000000	7.115894
3233.000000	7.117521
3232.000000	7.119641
3231.000000	7.122316
3230.000000	7.125358
3229.000000	7.128154
3228.000000	7.130031
3227.000000	7.130903
3226.000000	7.131451
3225.000000	7.132537
3224.000000	7.134467
3223.000000	7.136857
3222.000000	7.139107
3221.000000	7.140921
3220.000000	7.142435
3219.000000	7.144028
3218.000000	7.145981
3217.000000	7.148226
3216.000000	7.150408
3215.000000	7.152226
3214.000000	7.153653
3213.000000	7.154819
3212.000000	7.155872
3211.000000	7.157139
3210.000000	7.159187
3209.000000	7.162354
3208.000000	7.166142
3207.000000	7.169442
3206.000000	7.171590
3205.000000	7.173064
3204.000000	7.174996
3203.000000	7.178094
3202.000000	7.182162
3201.000000	7.186510
3200.000000	7.190548
3199.000000	7.193971
3198.000000	7.196675
3197.000000	7.198771
3196.000000	7.200680
3195.000000	7.203019
3194.000000	7.206188
3193.000000	7.210006
3192.000000	7.213841
3191.000000	7.217203
3190.000000	7.220209
3189.000000	7.223375
3188.000000	7.226965
3187.000000	7.230690
3186.000000	7.234145
3185.000000	7.237424
3184.000000	7.241030
3183.000000	7.245113
3182.000000	7.249031
3181.000000	7.251927
3180.000000	7.253756
3179.000000	7.255483
3178.000000	7.258138
3177.000000	7.261817
3176.000000	7.265759
3175.000000	7.269291
3174.000000	7.272411
3173.000000	7.275483
3172.000000	7.278638
3171.000000	7.281716
3170.000000	7.284627
3169.000000	7.287568
3168.000000	7.290825
3167.000000	7.294474
3166.000000	7.298303
3165.000000	7.302046
3164.000000	7.305687
3163.000000	7.309446
3162.000000	7.313332
3161.000000	7.316827
3160.000000	7.319304
3159.000000	7.320838
3158.000000	7.322341
3157.000000	7.324712
3156.000000	7.328070
3155.000000	7.331925
3154.000000	7.335831
3153.000000	7.339559
3152.000000	7.342927
3151.000000	7.345928
3150.000000	7.348963
3149.000000	7.352462
3148.000000	7.356214
3147.000000	7.359524
3146.000000	7.362187
3145.000000	7.364911
3144.000000	7.368490
3143.000000	7.372845
3142.000000	7.377206
3141.000000	7.381065
3140.000000	7.384590
3139.000000	7.388149
3138.000000	7.391750
3137.000000	7.395071
3136.000000	7.397866
3135.000000	7.400208
3134.000000	7.402349
3133.000000	7.404390
3132.000000	7.406161
3131.000000	7.407569
3130.000000	7.409048
3129.000000	7.411383
3128.000000	7.414910
3127.000000	7.419073
3126.000000	7.423024
3125.000000	7.426536
3124.000000	7.430032
3123.000000	7.433765
3122.000000	7.437356
3121.000000	7.440196
3120.000000	7.442017
3119.000000	7.442983
3118.000000	7.443564
3117.000000	7.444559
3116.000000	7.446855
3115.000000	7.450700
3114.000000	7.455277
3113.000000	7.459417
3112.000000	7.462776
3111.000000	7.465935
3110.000000	7.469324
3109.000000	7.472506
3108.000000	7.474840
3107.000000	7.476489
3106.000000	7.478306
3105.000000	7.480852
3104.000000	7.483937
3103.000000	7.487155
3102.000000	7.490450
3101.000000	7.494033
3100.000000	7.498050
3099.000000	7.502538
3098.000000	7.507480
3097.000000	7.512689
3096.000000	7.517773
3095.000000	7.522366
3094.000000	7.526294
3093.000000	7.529402
3092.000000	7.531469
3091.000000	7.532601
3090.000000	7.533564
3089.000000	7.535338
3088.000000	7.538272
3087.000000	7.541906
3086.000000	7.545712
3085.000000	7.549728
3084.000000	7.554335
3083.000000	7.559578
3082.000000	7.564875
3081.000000	7.569355
3080.000000	7.572402
3079.000000	7.574007
3078.000000	7.574836
3077.000000	7.575900
3076.000000	7.577952
3075.000000	7.581000
3074.000000	7.584356
3073.000000	7.587211
3072.000000	7.589238
3071.000000	7.590747
3070.000000	7.592338
3069.000000	7.594373
3068.000000	7.596726
3067.000000	7.599001
3066.000000	7.600979
3065.000000	7.602847
3064.000000	7.604954
3063.000000	7.607409
3062.000000	7.610023
3061.000000	7.612683
3060.000000	7.615680
3059.000000	7.619485
3058.000000	7.624184
3057.000000	7.629235
3056.000000	7.633882
3055.000000	7.637762
3054.000000	7.641085
3053.000000	7.644315
3052.000000	7.647786
3051.000000	7.651558
3050.000000	7.655489
3049.000000	7.659422
3048.000000	7.663343
3047.000000	7.667308
3046.000000	7.671124
3045.000000	7.674268
3044.000000	7.676378
3043.000000	7.677866
3042.000000	7.679743
3041.000000	7.682655
3040.000000	7.686177
3039.000000	7.689197
3038.000000	7.690947
3037.000000	7.691643
3036.000000	7.692219
3035.000000	7.693511
3034.000000	7.695537
3033.000000	7.697480
3032.000000	7.698406
3031.000000	7.698112
3030.000000	7.697199
3029.000000	7.696315
3028.000000	7.695422
3027.000000	7.693866
3026.000000	7.691015
3025.000000	7.686758
3024.000000	7.681615
3023.000000	7.676571
3022.000000	7.672691
3021.000000	7.670697
3020.000000	7.670866
3019.000000	7.673344
3018.000000	7.678337
3017.000000	7.685849
3016.000000	7.695392
3015.000000	7.706258
3014.000000	7.718050
3013.000000	7.730744
3012.000000	7.744193
3011.000000	7.757774
3010.000000	7.770572
3009.000000	7.781865
3008.000000	7.791478
3007.000000	7.799842
3006.000000	7.807697
3005.000000	7.815562
3004.000000	7.823364
3003.000000	7.830509
3002.000000	7.836316
3001.000000	7.840480
3000.000000	7.843398
2999.000000	7.846184
2998.000000	7.850083
2997.000000	7.855479
2996.000000	7.861411
2995.000000	7.866341
2994.000000	7.869507
2993.000000	7.871445
2992.000000	7.873229
2991.000000	7.875465
2990.000000	7.878032
2989.000000	7.880526
2988.000000	7.882661
2987.000000	7.884311
2986.000000	7.885429
2985.000000	7.886034
2984.000000	7.886216
2983.000000	7.886002
2982.000000	7.885251
2981.000000	7.883785
2980.000000	7.881700
2979.000000	7.879369
2978.000000	7.876906
2977.000000	7.873665
2976.000000	7.868559
2975.000000	7.861019
2974.000000	7.851464
2973.000000	7.840756
2972.000000	7.829434
2971.000000	7.817610
2970.000000	7.805337
2969.000000	7.792724
2968.000000	7.779858
2967.000000	7.767017
2966.000000	7.754948
2965.000000	7.744610
2964.000000	7.736543
2963.000000	7.730723
2962.000000	7.727107
2961.000000	7.726023
2960.000000	7.727847
2959.000000	7.732375
2958.000000	7.738640
2957.000000	7.745368
2956.000000	7.751688
2955.000000	7.757602
2954.000000	7.763771
2953.000000	7.770632
2952.000000	7.777582
2951.000000	7.783086
2950.000000	7.785739
2949.000000	7.785264
2948.000000	7.782540
2947.000000	7.778714
2946.000000	7.774149
2945.000000	7.768018
2944.000000	7.758840
2943.000000	7.745640
2942.000000	7.728791
2941.000000	7.709816
2940.000000	7.690358
2939.000000	7.671319
2938.000000	7.652845
2937.000000	7.634927
2936.000000	7.617846
2935.000000	7.601992
2934.000000	7.587344
2933.000000	7.573309
2932.000000	7.559229
2931.000000	7.545068
2930.000000	7.531523
2929.000000	7.519589
2928.000000	7.510304
2927.000000	7.504921
2926.000000	7.504887
2925.000000	7.511283
2924.000000	7.524396
2923.000000	7.544016
2922.000000	7.569913
2921.000000	7.601652
2920.000000	7.638035
2919.000000	7.677189
2918.000000	7.717410
2917.000000	7.757842
2916.000000	7.798265
2915.000000	7.838359
2914.000000	7.877182
2913.000000	7.913343
2912.000000	7.945809
2911.000000	7.974676
2910.000000	8.000995
2909.000000	8.025673
2908.000000	8.048691
2907.000000	8.069591
2906.000000	8.088464
2905.000000	8.106024
2904.000000	8.122773
2903.000000	8.138565
2902.000000	8.153159
2901.000000	8.166917
2900.000000	8.180723
2899.000000	8.195255
2898.000000	8.210311
2897.000000	8.224815
2896.000000	8.237672
2895.000000	8.248852
2894.000000	8.259541
2893.000000	8.270978
2892.000000	8.283330
2891.000000	8.295957
2890.000000	8.308473
2889.000000	8.320917
2888.000000	8.332973
2887.000000	8.343755
2886.000000	8.352639
2885.000000	8.359863
2884.000000	8.366017
2883.000000	8.371383
2882.000000	8.376000
2881.000000	8.380007
2880.000000	8.383524
2879.000000	8.386428
2878.000000	8.388491
2877.000000	8.389497
2876.000000	8.388983
2875.000000	8.386203
2874.000000	8.380718
2873.000000	8.372808
2872.000000	8.362982
2871.000000	8.351235
2870.000000	8.337088
2869.000000	8.320220
2868.000000	8.300797
2867.000000	8.279411
2866.000000	8.257083
2865.000000	8.235343
2864.000000	8.216037
2863.000000	8.201002
2862.000000	8.191944
2861.000000	8.190084
2860.000000	8.195374
2859.000000	8.206078
2858.000000	8.219727
2857.000000	8.234748
2856.000000	8.250987
2855.000000	8.268782
2854.000000	8.288053
2853.000000	8.308567
2852.000000	8.330692
2851.000000	8.355382
2850.000000	8.383266
2849.000000	8.413864
2848.000000	8.445625
2847.000000	8.476640
2846.000000	8.505516
2845.000000	8.531828
2844.000000	8.555946
2843.000000	8.578394
2842.000000	8.599308
2841.000000	8.618410
2840.000000	8.635392
2839.000000	8.650307
2838.000000	8.663654
2837.000000	8.676166
2836.000000	8.688426
2835.000000	8.700548
2834.000000	8.712133
2833.000000	8.722632
2832.000000	8.731884
2831.000000	8.740323
2830.000000	8.748593
2829.000000	8.756945
2828.000000	8.765125
2827.000000	8.772859
2826.000000	8.780254
2825.000000	8.787559
2824.000000	8.794672
2823.000000	8.801183
2822.000000	8.806957
2821.000000	8.812457
2820.000000	8.818360
2819.000000	8.824924
2818.000000	8.831826
2817.000000	8.838525
2816.000000	8.844648
2815.000000	8.850060
2814.000000	8.854706
2813.000000	8.858606
2812.000000	8.862131
2811.000000	8.866146
2810.000000	8.871489
2809.000000	8.878031
2808.000000	8.884461
2807.000000	8.889349
2806.000000	8.892442
2805.000000	8.894726
2804.000000	8.897320
2803.000000	8.900639
2802.000000	8.904578
2801.000000	8.908986
2800.000000	8.913674
2799.000000	8.918246
2798.000000	8.922270
2797.000000	8.925586
2796.000000	8.928328
2795.000000	8.930787
2794.000000	8.933389
2793.000000	8.936618
2792.000000	8.940761
2791.000000	8.945763
2790.000000	8.951378
2789.000000	8.957334
2788.000000	8.963285
2787.000000	8.968836
2786.000000	8.973806
2785.000000	8.978355
2784.000000	8.982760
2783.000000	8.987246
2782.000000	8.992105
2781.000000	8.997649
2780.000000	9.003716
2779.000000	9.009469
2778.000000	9.014077
2777.000000	9.017565
2776.000000	9.020693
2775.000000	9.024092
2774.000000	9.027844
2773.000000	9.031855
2772.000000	9.036151
2771.000000	9.040600
2770.000000	9.044718
2769.000000	9.048096
2768.000000	9.050891
2767.000000	9.053663
2766.000000	9.056770
2765.000000	9.060144
2764.000000	9.063632
2763.000000	9.067313
2762.000000	9.071329
2761.000000	9.075508
2760.000000	9.079320
2759.000000	9.082258
2758.000000	9.084248
2757.000000	9.085698
2756.000000	9.087240
2755.000000	9.089386
2754.000000	9.092297
2753.000000	9.095705
2752.000000	9.099115
2751.000000	9.102201
2750.000000	9.105014
2749.000000	9.107704
2748.000000	9.110107
2747.000000	9.111877
2746.000000	9.113107
2745.000000	9.114546
2744.000000	9.116925
2743.000000	9.120134
2742.000000	9.123272
2741.000000	9.125560
2740.000000	9.127069
2739.000000	9.128581
2738.000000	9.130841
2737.000000	9.133981
2736.000000	9.137510
2735.000000	9.140735
2734.000000	9.143186
2733.000000	9.144770
2732.000000	9.145683
2731.000000	9.146288
2730.000000	9.147015
2729.000000	9.148165
2728.000000	9.149717
2727.000000	9.151406
2726.000000	9.153117
2725.000000	9.155094
2724.000000	9.157645
2723.000000	9.160663
2722.000000	9.163620
2721.000000	9.166058
2720.000000	9.167948
2719.000000	9.169485
2718.000000	9.170687
2717.000000	9.171421
2716.000000	9.171858
2715.000000	9.172662
2714.000000	9.174457
2713.000000	9.177091
2712.000000	9.179601
2711.000000	9.181052
2710.000000	9.181402
2709.000000	9.181497
2708.000000	9.182236
2707.000000	9.183741
2706.000000	9.185218
2705.000000	9.185671
2704.000000	9.185003
2703.000000	9.184494
2702.000000	9.185925
2701.000000	9.189883
2700.000000	9.195029
2699.000000	9.199278
2698.000000	9.201632
2697.000000	9.202640
2696.000000	9.203331
2695.000000	9.204260
2694.000000	9.205596
2693.000000	9.207458
2692.000000	9.209751
2691.000000	9.211996
2690.000000	9.213764
2689.000000	9.215144
2688.000000	9.216481
2687.000000	9.217795
2686.000000	9.218799
2685.000000	9.219454
2684.000000	9.220146
2683.000000	9.221216
2682.000000	9.222489
2681.000000	9.223393
2680.000000	9.223511
2679.000000	9.223059
2678.000000	9.222850
2677.000000	9.223705
2676.000000	9.225756
2675.000000	9.228367
2674.000000	9.230781
2673.000000	9.232699
2672.000000	9.234120
2671.000000	9.234856
2670.000000	9.234590
2669.000000	9.233440
2668.000000	9.232136
2667.000000	9.231450
2666.000000	9.231563
2665.000000	9.232057
2664.000000	9.232431
2663.000000	9.232508
2662.000000	9.232426
2661.000000	9.232417
2660.000000	9.232622
2659.000000	9.233053
2658.000000	9.233614
2657.000000	9.234140
2656.000000	9.234509
2655.000000	9.234793
2654.000000	9.235248
2653.000000	9.235968
2652.000000	9.236578
2651.000000	9.236478
2650.000000	9.235516
2649.000000	9.234268
2648.000000	9.233501
2647.000000	9.233516
2646.000000	9.234158
2645.000000	9.235287
2644.000000	9.236859
2643.000000	9.238543
2642.000000	9.239639
2641.000000	9.239665
2640.000000	9.238888
2639.000000	9.238025
2638.000000	9.237420
2637.000000	9.236805
2636.000000	9.235972
2635.000000	9.235399
2634.000000	9.235802
2633.000000	9.237024
2632.000000	9.237810
2631.000000	9.237034
2630.000000	9.235003
2629.000000	9.233141
2628.000000	9.232447
2627.000000	9.232651
2626.000000	9.232939
2625.000000	9.233020
2624.000000	9.233150
2623.000000	9.233419
2622.000000	9.233450
2621.000000	9.232761
2620.000000	9.231145
2619.000000	9.228745
2618.000000	9.226062
2617.000000	9.223839
2616.000000	9.222635
2615.000000	9.222371
2614.000000	9.222421
2613.000000	9.222174
2612.000000	9.221396
2611.000000	9.220089
2610.000000	9.218283
2609.000000	9.216097
2608.000000	9.213864
2607.000000	9.212010
2606.000000	9.210755
2605.000000	9.209928
2604.000000	9.209037
2603.000000	9.207615
2602.000000	9.205595
2601.000000	9.203339
2600.000000	9.201205
2599.000000	9.199176
2598.000000	9.197046
2597.000000	9.194885
2596.000000	9.193056
2595.000000	9.191746
2594.000000	9.190744
2593.000000	9.189791
2592.000000	9.188968
2591.000000	9.188526
2590.000000	9.188426
2589.000000	9.188258
2588.000000	9.187652
2587.000000	9.186676
2586.000000	9.185813
2585.000000	9.185559
2584.000000	9.186047
2583.000000	9.186999
2582.000000	9.188023
2581.000000	9.188878
2580.000000	9.189429
2579.000000	9.189443
2578.000000	9.188721
2577.000000	9.187533
2576.000000	9.186682
2575.000000	9.186749
2574.000000	9.187261
2573.000000	9.186934
2572.000000	9.185004
2571.000000	9.182137
2570.000000	9.179747
2569.000000	9.178439
2568.000000	9.177529
2567.000000	9.176177
2566.000000	9.174565
2565.000000	9.173520
2564.000000	9.173189
2563.000000	9.172679
2562.000000	9.171157
2561.000000	9.168849
2560.000000	9.166625
2559.000000	9.164906
2558.000000	9.163364
2557.000000	9.161549
2556.000000	9.159341
2555.000000	9.156775
2554.000000	9.153860
2553.000000	9.150756
2552.000000	9.147880
2551.000000	9.145596
2550.000000	9.143895
2549.000000	9.142498
2548.000000	9.141139
2547.000000	9.139616
2546.000000	9.137764
2545.000000	9.135619
2544.000000	9.133503
2543.000000	9.131680
2542.000000	9.129899
2541.000000	9.127551
2540.000000	9.124410
2539.000000	9.121037
2538.000000	9.118255
2537.000000	9.116306
2536.000000	9.114668
2535.000000	9.112636
2534.000000	9.109928
2533.000000	9.106758
2532.000000	9.103586
2531.000000	9.100832
2530.000000	9.098647
2529.000000	9.096794
2528.000000	9.094847
2527.000000	9.092633
2526.000000	9.090345
2525.000000	9.088090
2524.000000	9.085534
2523.000000	9.082300
2522.000000	9.078665
2521.000000	9.075466
2520.000000	9.073181
2519.000000	9.071369
2518.000000	9.069238
2517.000000	9.066543
2516.000000	9.063691
2515.000000	9.061095
2514.000000	9.058728
2513.000000	9.056342
2512.000000	9.053847
2511.000000	9.051376
2510.000000	9.049067
2509.000000	9.046909
2508.000000	9.044780
2507.000000	9.042616
2506.000000	9.040488
2505.000000	9.038436
2504.000000	9.036236
2503.000000	9.033540
2502.000000	9.030393
2501.000000	9.027438
2500.000000	9.025334
2499.000000	9.024017
2498.000000	9.022861
2497.000000	9.021569
2496.000000	9.020520
2495.000000	9.020042
2494.000000	9.019702
2493.000000	9.018689
2492.000000	9.016793
2491.000000	9.014656
2490.000000	9.013094
2489.000000	9.012488
2488.000000	9.012800
2487.000000	9.013726
2486.000000	9.014613
2485.000000	9.014585
2484.000000	9.013250
2483.000000	9.011240
2482.000000	9.009729
2481.000000	9.009329
2480.000000	9.009663
2479.000000	9.010006
2478.000000	9.010046
2477.000000	9.009870
2476.000000	9.009486
2475.000000	9.008721
2474.000000	9.007582
2473.000000	9.006464
2472.000000	9.005848
2471.000000	9.005839
2470.000000	9.006072
2469.000000	9.006067
2468.000000	9.005692
2467.000000	9.005251
2466.000000	9.005124
2465.000000	9.005376
2464.000000	9.005782
2463.000000	9.006141
2462.000000	9.006400
2461.000000	9.006546
2460.000000	9.006651
2459.000000	9.007082
2458.000000	9.008301
2457.000000	9.010221
2456.000000	9.012050
2455.000000	9.013133
2454.000000	9.013772
2453.000000	9.014834
2452.000000	9.016629
2451.000000	9.018587
2450.000000	9.020043
2449.000000	9.020904
2448.000000	9.021472
2447.000000	9.022046
2446.000000	9.022921
2445.000000	9.024375
2444.000000	9.026307
2443.000000	9.028132
2442.000000	9.029379
2441.000000	9.030271
2440.000000	9.031413
2439.000000	9.033021
2438.000000	9.034738
2437.000000	9.036145
2436.000000	9.037195
2435.000000	9.038157
2434.000000	9.039339
2433.000000	9.040847
2432.000000	9.042435
2431.000000	9.043641
2430.000000	9.044312
2429.000000	9.044971
2428.000000	9.046487
2427.000000	9.049310
2426.000000	9.053105
2425.000000	9.057034
2424.000000	9.060221
2423.000000	9.062123
2422.000000	9.062848
2421.000000	9.063223
2420.000000	9.064261
2419.000000	9.066318
2418.000000	9.068811
2417.000000	9.070844
2416.000000	9.072050
2415.000000	9.072860
2414.000000	9.074101
2413.000000	9.076326
2412.000000	9.079353
2411.000000	9.082384
2410.000000	9.084728
2409.000000	9.086499
2408.000000	9.088451
2407.000000	9.091092
2406.000000	9.094081
2405.000000	9.096596
2404.000000	9.098138
2403.000000	9.098890
2402.000000	9.099403
2401.000000	9.100038
2400.000000	9.100665
2399.000000	9.100897
2398.000000	9.100699
2397.000000	9.100745
2396.000000	9.101952
2395.000000	9.104547
2394.000000	9.107753
2393.000000	9.110501
2392.000000	9.112277
2391.000000	9.113203
2390.000000	9.113580
2389.000000	9.113628
2388.000000	9.113554
2387.000000	9.113513
2386.000000	9.113465
2385.000000	9.113239
2384.000000	9.112696
2383.000000	9.111674
2382.000000	9.109867
2381.000000	9.106984
2380.000000	9.102976
2379.000000	9.097829
2378.000000	9.091167
2377.000000	9.082484
2376.000000	9.071928
2375.000000	9.060499
2374.000000	9.049131
2373.000000	9.037741
2372.000000	9.025525
2371.000000	9.012143
2370.000000	8.998283
2369.000000	8.984972
2368.000000	8.972622
2367.000000	8.960992
2366.000000	8.949984
2365.000000	8.940213
2364.000000	8.932708
2363.000000	8.928178
2362.000000	8.926654
2361.000000	8.927764
2360.000000	8.931253
2359.000000	8.937211
2358.000000	8.945916
2357.000000	8.957502
2356.000000	8.971726
2355.000000	8.987983
2354.000000	9.005496
2353.000000	9.023389
2352.000000	9.040390
2351.000000	9.054386
2350.000000	9.062516
2349.000000	9.062090
2348.000000	9.051788
2347.000000	9.032185
2346.000000	9.005333
2345.000000	8.973967
2344.000000	8.940988
2343.000000	8.909457
2342.000000	8.882812
2341.000000	8.864748
2340.000000	8.858210
2339.000000	8.863769
2338.000000	8.878693
2337.000000	8.897947
2336.000000	8.916639
2335.000000	8.932007
2334.000000	8.943573
2333.000000	8.952053
2332.000000	8.958447
2331.000000	8.963799
2330.000000	8.969080
2329.000000	8.974822
2328.000000	8.980885
2327.000000	8.986773
2326.000000	8.992250
2325.000000	8.997600
2324.000000	9.003285
2323.000000	9.009451
2322.000000	9.015869
2321.000000	9.022281
2320.000000	9.028543
2319.000000	9.034377
2318.000000	9.039281
2317.000000	9.043071
2316.000000	9.046362
2315.000000	9.050108
2314.000000	9.054577
2313.000000	9.059115
2312.000000	9.063011
2311.000000	9.066249
2310.000000	9.069235
2309.000000	9.072095
2308.000000	9.074528
2307.000000	9.076119
2306.000000	9.076618
2305.000000	9.076193
2304.000000	9.075672
2303.000000	9.076184
2302.000000	9.078055
2301.000000	9.080218
2300.000000	9.081189
2299.000000	9.080591
2298.000000	9.079341
2297.000000	9.078459
2296.000000	9.078209
2295.000000	9.078385
2294.000000	9.078834
2293.000000	9.079432
2292.000000	9.079974
2291.000000	9.080396
2290.000000	9.080810
2289.000000	9.081088
2288.000000	9.080731
2287.000000	9.079471
2286.000000	9.077822
2285.000000	9.076644
2284.000000	9.076168
2283.000000	9.075692
2282.000000	9.074263
2281.000000	9.071635
2280.000000	9.068582
2279.000000	9.066319
2278.000000	9.065513
2277.000000	9.065805
2276.000000	9.066344
2275.000000	9.066661
2274.000000	9.066763
2273.000000	9.066521
2272.000000	9.065477
2271.000000	9.063451
2270.000000	9.061006
2269.000000	9.059030
2268.000000	9.058077
2267.000000	9.058206
2266.000000	9.059134
2265.000000	9.060277
2264.000000	9.060930
2263.000000	9.060766
2262.000000	9.059991
2261.000000	9.058794
2260.000000	9.056965
2259.000000	9.054408
2258.000000	9.051754
2257.000000	9.049933
2256.000000	9.049197
2255.000000	9.049047
2254.000000	9.049083
2253.000000	9.049417
2252.000000	9.050126
2251.000000	9.050757
2250.000000	9.050741
2249.000000	9.050142
2248.000000	9.049700
2247.000000	9.050069
2246.000000	9.051064
2245.000000	9.051721
2244.000000	9.051244
2243.000000	9.049961
2242.000000	9.049143
2241.000000	9.049657
2240.000000	9.050974
2239.000000	9.051763
2238.000000	9.051333
2237.000000	9.050154
2236.000000	9.049110
2235.000000	9.048757
2234.000000	9.049322
2233.000000	9.050837
2232.000000	9.052899
2231.000000	9.054643
2230.000000	9.055352
2229.000000	9.055018
2228.000000	9.054147
2227.000000	9.053175
2226.000000	9.052320
2225.000000	9.051794
2224.000000	9.051810
2223.000000	9.052367
2222.000000	9.053200
2221.000000	9.053925
2220.000000	9.054175
2219.000000	9.053807
2218.000000	9.053209
2217.000000	9.053228
2216.000000	9.054372
2215.000000	9.056062
2214.000000	9.057042
2213.000000	9.056684
2212.000000	9.055572
2211.000000	9.054631
2210.000000	9.054068
2209.000000	9.053597
2208.000000	9.053386
2207.000000	9.054084
2206.000000	9.055736
2205.000000	9.057308
2204.000000	9.057776
2203.000000	9.057424
2202.000000	9.057539
2201.000000	9.058882
2200.000000	9.060888
2199.000000	9.062433
2198.000000	9.062953
2197.000000	9.062666
2196.000000	9.062114
2195.000000	9.061827
2194.000000	9.062211
2193.000000	9.063358
2192.000000	9.064920
2191.000000	9.066329
2190.000000	9.067187
2189.000000	9.067428
2188.000000	9.067255
2187.000000	9.067043
2186.000000	9.067162
2185.000000	9.067670
2184.000000	9.068206
2183.000000	9.068359
2182.000000	9.068127
2181.000000	9.067950
2180.000000	9.068330
2179.000000	9.069452
2178.000000	9.071026
2177.000000	9.072406
2176.000000	9.072994
2175.000000	9.072728
2174.000000	9.072122
2173.000000	9.071761
2172.000000	9.071918
2171.000000	9.072732
2170.000000	9.074459
2169.000000	9.077189
2168.000000	9.080382
2167.000000	9.083039
2166.000000	9.084412
2165.000000	9.084498
2164.000000	9.083911
2163.000000	9.083479
2162.000000	9.083786
2161.000000	9.084835
2160.000000	9.086114
2159.000000	9.087192
2158.000000	9.088147
2157.000000	9.089261
2156.000000	9.090456
2155.000000	9.091407
2154.000000	9.092096
2153.000000	9.092841
2152.000000	9.093730
2151.000000	9.094450
2150.000000	9.094869
2149.000000	9.095416
2148.000000	9.096631
2147.000000	9.098547
2146.000000	9.100733
2145.000000	9.102813
2144.000000	9.104765
2143.000000	9.106771
2142.000000	9.108884
2141.000000	9.110819
2140.000000	9.112131
2139.000000	9.112745
2138.000000	9.113257
2137.000000	9.114424
2136.000000	9.116358
2135.000000	9.118555
2134.000000	9.120747
2133.000000	9.123244
2132.000000	9.126192
2131.000000	9.128939
2130.000000	9.130649
2129.000000	9.131337
2128.000000	9.131896
2127.000000	9.133153
2126.000000	9.135285
2125.000000	9.138022
2124.000000	9.140939
2123.000000	9.143483
2122.000000	9.145220
2121.000000	9.146322
2120.000000	9.147549
2119.000000	9.149495
2118.000000	9.152044
2117.000000	9.154780
2116.000000	9.157744
2115.000000	9.161393
2114.000000	9.165776
2113.000000	9.170086
2112.000000	9.173270
2111.000000	9.175090
2110.000000	9.176463
2109.000000	9.178706
2108.000000	9.182392
2107.000000	9.186879
2106.000000	9.190892
2105.000000	9.193612
2104.000000	9.195309
2103.000000	9.197021
2102.000000	9.199632
2101.000000	9.203199
2100.000000	9.207052
2099.000000	9.210533
2098.000000	9.213633
2097.000000	9.216945
2096.000000	9.220973
2095.000000	9.225519
2094.000000	9.229814
2093.000000	9.233263
2092.000000	9.235980
2091.000000	9.238555
2090.000000	9.241437
2089.000000	9.244690
2088.000000	9.248257
2087.000000	9.252176
2086.000000	9.256430
2085.000000	9.260805
2084.000000	9.265104
2083.000000	9.269392
2082.000000	9.273803
2081.000000	9.278203
2080.000000	9.282320
2079.000000	9.286207
2078.000000	9.290275
2077.000000	9.294692
2076.000000	9.298992
2075.000000	9.302591
2074.000000	9.305607
2073.000000	9.308877
2072.000000	9.313040
2071.000000	9.317753
2070.000000	9.322013
2069.000000	9.325298
2068.000000	9.328301
2067.000000	9.332374
2066.000000	9.338182
2065.000000	9.344941
2064.000000	9.351060
2063.000000	9.355460
2062.000000	9.358239
2061.000000	9.360305
2060.000000	9.362725
2059.000000	9.366336
2058.000000	9.371417
2057.000000	9.377367
2056.000000	9.382946
2055.000000	9.387231
2054.000000	9.390347
2053.000000	9.393085
2052.000000	9.395977
2051.000000	9.399020
2050.000000	9.402185
2049.000000	9.405781
2048.000000	9.410170
2047.000000	9.415346
2046.000000	9.420890
2045.000000	9.426198
2044.000000	9.430720
2043.000000	9.434238
2042.000000	9.437085
2041.000000	9.440012
2040.000000	9.443676
2039.000000	9.448213
2038.000000	9.453232
2037.000000	9.458115
2036.000000	9.462338
2035.000000	9.465713
2034.000000	9.468383
2033.000000	9.470567
2032.000000	9.472356
2031.000000	9.473942
2030.000000	9.475948
2029.000000	9.479149
2028.000000	9.483657
2027.000000	9.488609
2026.000000	9.492896
2025.000000	9.496193
2024.000000	9.499124
2023.000000	9.502505
2022.000000	9.506546
2021.000000	9.510715
2020.000000	9.514257
2019.000000	9.516965
2018.000000	9.519586
2017.000000	9.523307
2016.000000	9.528551
2015.000000	9.534306
2014.000000	9.538912
2013.000000	9.541596
2012.000000	9.543109
2011.000000	9.544864
2010.000000	9.547671
2009.000000	9.551346
2008.000000	9.555234
2007.000000	9.558826
2006.000000	9.562009
2005.000000	9.564974
2004.000000	9.567930
2003.000000	9.570819
2002.000000	9.573317
2001.000000	9.575187
2000.000000	9.576606
1999.000000	9.578081
1998.000000	9.580055
1997.000000	9.582548
1996.000000	9.585026
1995.000000	9.586637
1994.000000	9.586929
1993.000000	9.586573
1992.000000	9.587169
1991.000000	9.589909
1990.000000	9.594384
1989.000000	9.598888
1988.000000	9.601839
1987.000000	9.602773
1986.000000	9.602241
1985.000000	9.601329
1984.000000	9.601310
1983.000000	9.603137
1982.000000	9.606732
1981.000000	9.610915
1980.000000	9.614324
1979.000000	9.616362
1978.000000	9.617227
1977.000000	9.617322
1976.000000	9.616953
1975.000000	9.616450
1974.000000	9.616207
1973.000000	9.616474
1972.000000	9.617147
1971.000000	9.617777
1970.000000	9.617806
1969.000000	9.617021
1968.000000	9.615861
1967.000000	9.615127
1966.000000	9.615286
1965.000000	9.616084
1964.000000	9.616720
1963.000000	9.616180
1962.000000	9.613637
1961.000000	9.609254
1960.000000	9.604826
1959.000000	9.602950
1958.000000	9.604894
1957.000000	9.609411
1956.000000	9.613983
1955.000000	9.617031
1954.000000	9.618610
1953.000000	9.619389
1952.000000	9.619659
1951.000000	9.619333
1950.000000	9.618402
1949.000000	9.617172
1948.000000	9.616106
1947.000000	9.615330
1946.000000	9.614270
1945.000000	9.612198
1944.000000	9.609439
1943.000000	9.607561
1942.000000	9.607885
1941.000000	9.610038
1940.000000	9.612407
1939.000000	9.613664
1938.000000	9.613372
1937.000000	9.611673
1936.000000	9.609231
1935.000000	9.607251
1934.000000	9.606581
1933.000000	9.606710
1932.000000	9.606388
1931.000000	9.605210
1930.000000	9.603876
1929.000000	9.602850
1928.000000	9.601585
1927.000000	9.599317
1926.000000	9.596040
1925.000000	9.592533
1924.000000	9.589847
1923.000000	9.588667
1922.000000	9.588467
1921.000000	9.587464
1920.000000	9.584374
1919.000000	9.580311
1918.000000	9.577937
1917.000000	9.578353
1916.000000	9.579768
1915.000000	9.579635
1914.000000	9.577212
1913.000000	9.573513
1912.000000	9.569708
1911.000000	9.566401
1910.000000	9.563814
1909.000000	9.561714
1908.000000	9.559365
1907.000000	9.556215
1906.000000	9.552504
1905.000000	9.548855
1904.000000	9.545582
1903.000000	9.542744
1902.000000	9.540445
1901.000000	9.538563
1900.000000	9.536494
1899.000000	9.533639
1898.000000	9.530048
1897.000000	9.526380
1896.000000	9.523437
1895.000000	9.521665
1894.000000	9.520570
1893.000000	9.518643
1892.000000	9.514715
1891.000000	9.509727
1890.000000	9.506312
1889.000000	9.506090
1888.000000	9.508007
1887.000000	9.509741
1886.000000	9.509977
1885.000000	9.508788
1884.000000	9.506746
1883.000000	9.504564
1882.000000	9.502986
1881.000000	9.502026
1880.000000	9.500633
1879.000000	9.497873
1878.000000	9.494134
1877.000000	9.490636
1876.000000	9.488209
1875.000000	9.487004
1874.000000	9.486552
1873.000000	9.485250
1872.000000	9.480751
1871.000000	9.472344
1870.000000	9.462692
1869.000000	9.455946
1868.000000	9.454028
1867.000000	9.455586
1866.000000	9.458209
1865.000000	9.460455
1864.000000	9.461740
1863.000000	9.461645
1862.000000	9.460041
1861.000000	9.457296
1860.000000	9.454002
1859.000000	9.450742
1858.000000	9.447983
1857.000000	9.445664
1856.000000	9.443094
1855.000000	9.439882
1854.000000	9.436637
1853.000000	9.433965
1852.000000	9.431130
1851.000000	9.426807
1850.000000	9.420907
1849.000000	9.414298
1848.000000	9.406693
1847.000000	9.396596
1846.000000	9.384328
1845.000000	9.373788
1844.000000	9.369603
1843.000000	9.372551
1842.000000	9.378664
1841.000000	9.382814
1840.000000	9.382553
1839.000000	9.378673
1838.000000	9.373221
1837.000000	9.367748
1836.000000	9.362955
1835.000000	9.358758
1834.000000	9.354072
1833.000000	9.347280
1832.000000	9.337998
1831.000000	9.328308
1830.000000	9.321163
1829.000000	9.317175
1828.000000	9.313931
1827.000000	9.309061
1826.000000	9.303083
1825.000000	9.298339
1824.000000	9.295795
1823.000000	9.294030
1822.000000	9.291055
1821.000000	9.286116
1820.000000	9.279812
1819.000000	9.273434
1818.000000	9.268223
1817.000000	9.264402
1816.000000	9.260714
1815.000000	9.255479
1814.000000	9.248208
1813.000000	9.239865
1812.000000	9.231756
1811.000000	9.224705
1810.000000	9.218995
1809.000000	9.214320
1808.000000	9.209774
1807.000000	9.204406
1806.000000	9.197715
1805.000000	9.189345
1804.000000	9.178934
1803.000000	9.167008
1802.000000	9.155508
1801.000000	9.146418
1800.000000	9.140009
1799.000000	9.135045
1798.000000	9.130062
1797.000000	9.123426
1796.000000	9.112951
1795.000000	9.097519
1794.000000	9.079494
1793.000000	9.064132
1792.000000	9.055683
1791.000000	9.054279
1790.000000	9.056314
1789.000000	9.056945
1788.000000	9.052665
1787.000000	9.043154
1786.000000	9.031288
1785.000000	9.020514
1784.000000	9.011921
1783.000000	9.004423
1782.000000	8.997291
1781.000000	8.991003
1780.000000	8.985557
1779.000000	8.979581
1778.000000	8.971476
1777.000000	8.960047
1776.000000	8.943963
1775.000000	8.922908
1774.000000	8.900367
1773.000000	8.883133
1772.000000	8.875724
1771.000000	8.875981
1770.000000	8.877800
1769.000000	8.877609
1768.000000	8.876394
1767.000000	8.875710
1766.000000	8.873960
1765.000000	8.867791
1764.000000	8.856301
1763.000000	8.842719
1762.000000	8.831640
1761.000000	8.824743
1760.000000	8.819512
1759.000000	8.812365
1758.000000	8.802697
1757.000000	8.792883
1756.000000	8.784200
1755.000000	8.774143
1754.000000	8.759086
1753.000000	8.739125
1752.000000	8.718939
1751.000000	8.703694
1750.000000	8.694939
1749.000000	8.690521
1748.000000	8.687268
1747.000000	8.683010
1746.000000	8.676759
1745.000000	8.668201
1744.000000	8.657327
1743.000000	8.644291
1742.000000	8.629872
1741.000000	8.616373
1740.000000	8.606919
1739.000000	8.601735
1738.000000	8.594888
1737.000000	8.577792
1736.000000	8.548979
1735.000000	8.519459
1734.000000	8.504833
1733.000000	8.510824
1732.000000	8.528498
1731.000000	8.544236
1730.000000	8.551788
1729.000000	8.553422
1728.000000	8.552864
1727.000000	8.551039
1726.000000	8.547689
1725.000000	8.543342
1724.000000	8.538600
1723.000000	8.532856
1722.000000	8.523877
1721.000000	8.508208
1720.000000	8.483990
1719.000000	8.455707
1718.000000	8.434382
1717.000000	8.429256
1716.000000	8.438987
1715.000000	8.453564
1714.000000	8.464454
1713.000000	8.469973
1712.000000	8.471619
1711.000000	8.469840
1710.000000	8.464688
1709.000000	8.456998
1708.000000	8.447284
1707.000000	8.436176
1706.000000	8.426235
1705.000000	8.419116
1704.000000	8.410039
1703.000000	8.390979
1702.000000	8.362849
1701.000000	8.339132
1700.000000	8.331564
1699.000000	8.335668
1698.000000	8.337248
1697.000000	8.331760
1696.000000	8.329856
1695.000000	8.342399
1694.000000	8.366211
1693.000000	8.388053
1692.000000	8.398837
1691.000000	8.399847
1690.000000	8.396446
1689.000000	8.389262
1688.000000	8.373109
1687.000000	8.344677
1686.000000	8.310970
1685.000000	8.287982
1684.000000	8.288065
1683.000000	8.308418
1682.000000	8.334089
1681.000000	8.351925
1680.000000	8.358828
1679.000000	8.357284
1678.000000	8.348695
1677.000000	8.334631
1676.000000	8.320761
1675.000000	8.313771
1674.000000	8.314034
1673.000000	8.314903
1672.000000	8.310381
1671.000000	8.301532
1670.000000	8.294562
1669.000000	8.294215
1668.000000	8.299801
1667.000000	8.306122
1666.000000	8.307236
1665.000000	8.300623
1664.000000	8.289371
1663.000000	8.280024
1662.000000	8.276988
1661.000000	8.278944
1660.000000	8.281159
1659.000000	8.279985
1658.000000	8.272785
1657.000000	8.254381
1656.000000	8.219014
1655.000000	8.170309
1654.000000	8.126978
1653.000000	8.111740
1652.000000	8.130831
1651.000000	8.166493
1650.000000	8.192225
1649.000000	8.194868
1648.000000	8.181458
1647.000000	8.168015
1646.000000	8.165182
1645.000000	8.172960
1644.000000	8.184267
1643.000000	8.191554
1642.000000	8.191760
1641.000000	8.186351
1640.000000	8.176616
1639.000000	8.160463
1638.000000	8.136264
1637.000000	8.109303
1636.000000	8.090808
1635.000000	8.088509
1634.000000	8.099340
1633.000000	8.112371
1632.000000	8.117759
1631.000000	8.112482
1630.000000	8.099663
1629.000000	8.084482
1628.000000	8.070127
1627.000000	8.055963
1626.000000	8.039253
1625.000000	8.019061
1624.000000	7.998062
1623.000000	7.979931
1622.000000	7.965072
1621.000000	7.949289
1620.000000	7.927009
1619.000000	7.896709
1618.000000	7.863987
1617.000000	7.838357
1616.000000	7.824976
1615.000000	7.819103
1614.000000	7.810071
1613.000000	7.791131
1612.000000	7.764374
1611.000000	7.736489
1610.000000	7.712410
1609.000000	7.694138
1608.000000	7.682984
1607.000000	7.679857
1606.000000	7.683705
1605.000000	7.691738
1604.000000	7.701528
1603.000000	7.711967
1602.000000	7.722530
1601.000000	7.732780
1600.000000	7.742562
1599.000000	7.751733
1598.000000	7.759725
1597.000000	7.766141
1596.000000	7.771588
1595.000000	7.777083
1594.000000	7.782646
1593.000000	7.787122
1592.000000	7.789422
1591.000000	7.789474
1590.000000	7.788049
1589.000000	7.786129
1588.000000	7.784344
1587.000000	7.782603
1586.000000	7.780279
1585.000000	7.776999
1584.000000	7.773205
1583.000000	7.769835
1582.000000	7.767324
1581.000000	7.764369
1580.000000	7.757350
1579.000000	7.742501
1578.000000	7.721060
1577.000000	7.702186
1576.000000	7.697430
1575.000000	7.709638
1574.000000	7.728391
1573.000000	7.738649
1572.000000	7.733982
1571.000000	7.720418
1570.000000	7.708510
1569.000000	7.703739
1568.000000	7.704067
1567.000000	7.704083
1566.000000	7.699922
1565.000000	7.690649
1564.000000	7.675534
1563.000000	7.651066
1562.000000	7.613581
1561.000000	7.567304
1560.000000	7.527832
1559.000000	7.512635
1558.000000	7.525985
1557.000000	7.555370
1556.000000	7.583965
1555.000000	7.604509
1554.000000	7.620033
1553.000000	7.634955
1552.000000	7.649704
1551.000000	7.662910
1550.000000	7.674237
1549.000000	7.683522
1548.000000	7.689546
1547.000000	7.691412
1546.000000	7.689963
1545.000000	7.686454
1544.000000	7.680432
1543.000000	7.670448
1542.000000	7.657646
1541.000000	7.648511
1540.000000	7.652691
1539.000000	7.675647
1538.000000	7.711913
1537.000000	7.746951
1536.000000	7.768245
1535.000000	7.775273
1534.000000	7.777694
1533.000000	7.784289
1532.000000	7.795348
1531.000000	7.805168
1530.000000	7.808975
1529.000000	7.806334
1528.000000	7.800274
1527.000000	7.794833
1526.000000	7.791780
1525.000000	7.788098
1524.000000	7.778455
1523.000000	7.762364
1522.000000	7.747350
1521.000000	7.742032
1520.000000	7.746476
1519.000000	7.752195
1518.000000	7.751734
1517.000000	7.745377
1516.000000	7.737734
1515.000000	7.731069
1514.000000	7.724388
1513.000000	7.716831
1512.000000	7.708187
1511.000000	7.695853
1510.000000	7.674584
1509.000000	7.641999
1508.000000	7.604064
1507.000000	7.572864
1506.000000	7.556721
1505.000000	7.551457
1504.000000	7.541495
1503.000000	7.509882
1502.000000	7.447617
1501.000000	7.354825
1500.000000	7.236496
