PE IR       SUBTECH     SPECTRUM    ASCII       PEDS        4.00        
   -1
TE108B1_008.ASC
20/02/21
14:48:23.00
20/02/21
14:48:23.00
Administrator
Sample 008 By Administrator Date Friday, February 21 2020
1500.000000
#HDR
-1
-1
#GR
cm-1
%T
1.0
0.0
4000.000000
-1.000000
2501
8
10.384134
8.533690
#DATA
4000.000000	10.036112
3999.000000	10.036161
3998.000000	10.036005
3997.000000	10.035496
3996.000000	10.034683
3995.000000	10.033856
3994.000000	10.033420
3993.000000	10.033679
3992.000000	10.034634
3991.000000	10.035953
3990.000000	10.037176
3989.000000	10.038038
3988.000000	10.038594
3987.000000	10.039078
3986.000000	10.039662
3985.000000	10.040332
3984.000000	10.040959
3983.000000	10.041464
3982.000000	10.041915
3981.000000	10.042457
3980.000000	10.043171
3979.000000	10.044044
3978.000000	10.045070
3977.000000	10.046297
3976.000000	10.047697
3975.000000	10.049048
3974.000000	10.050079
3973.000000	10.050773
3972.000000	10.051469
3971.000000	10.052604
3970.000000	10.054334
3969.000000	10.056427
3968.000000	10.058489
3967.000000	10.060295
3966.000000	10.061901
3965.000000	10.063484
3964.000000	10.065115
3963.000000	10.066735
3962.000000	10.068327
3961.000000	10.070037
3960.000000	10.072023
3959.000000	10.074200
3958.000000	10.076238
3957.000000	10.077841
3956.000000	10.079039
3955.000000	10.080177
3954.000000	10.081647
3953.000000	10.083648
3952.000000	10.086131
3951.000000	10.088908
3950.000000	10.091755
3949.000000	10.094478
3948.000000	10.097002
3947.000000	10.099458
3946.000000	10.102132
3945.000000	10.105190
3944.000000	10.108403
3943.000000	10.111230
3942.000000	10.113277
3941.000000	10.114707
3940.000000	10.116161
3939.000000	10.118276
3938.000000	10.121275
3937.000000	10.124947
3936.000000	10.128900
3935.000000	10.132788
3934.000000	10.136371
3933.000000	10.139495
3932.000000	10.142097
3931.000000	10.144241
3930.000000	10.146162
3929.000000	10.148244
3928.000000	10.150888
3927.000000	10.154250
3926.000000	10.158047
3925.000000	10.161642
3924.000000	10.164501
3923.000000	10.166677
3922.000000	10.168862
3921.000000	10.171855
3920.000000	10.175896
3919.000000	10.180435
3918.000000	10.184551
3917.000000	10.187599
3916.000000	10.189595
3915.000000	10.191078
3914.000000	10.192671
3913.000000	10.194684
3912.000000	10.197057
3911.000000	10.199621
3910.000000	10.202436
3909.000000	10.205896
3908.000000	10.210475
3907.000000	10.216278
3906.000000	10.222786
3905.000000	10.229062
3904.000000	10.234346
3903.000000	10.238510
3902.000000	10.241900
3901.000000	10.244732
3900.000000	10.246734
3899.000000	10.247487
3898.000000	10.247079
3897.000000	10.246340
3896.000000	10.246451
3895.000000	10.248294
3894.000000	10.251967
3893.000000	10.256620
3892.000000	10.260788
3891.000000	10.263326
3890.000000	10.264432
3889.000000	10.265732
3888.000000	10.268925
3887.000000	10.274089
3886.000000	10.279353
3885.000000	10.282575
3884.000000	10.283419
3883.000000	10.283664
3882.000000	10.285308
3881.000000	10.288528
3880.000000	10.291691
3879.000000	10.293347
3878.000000	10.293844
3877.000000	10.294773
3876.000000	10.297111
3875.000000	10.300402
3874.000000	10.303808
3873.000000	10.307431
3872.000000	10.312045
3871.000000	10.317612
3870.000000	10.322605
3869.000000	10.325237
3868.000000	10.325279
3867.000000	10.324349
3866.000000	10.324331
3865.000000	10.325698
3864.000000	10.327480
3863.000000	10.328642
3862.000000	10.329071
3861.000000	10.329236
3860.000000	10.329436
3859.000000	10.330019
3858.000000	10.332276
3857.000000	10.338301
3856.000000	10.349151
3855.000000	10.362790
3854.000000	10.374273
3853.000000	10.378677
3852.000000	10.374568
3851.000000	10.364866
3850.000000	10.354555
3849.000000	10.347415
3848.000000	10.344462
3847.000000	10.344652
3846.000000	10.346511
3845.000000	10.348985
3844.000000	10.351396
3843.000000	10.353485
3842.000000	10.355870
3841.000000	10.359930
3840.000000	10.366478
3839.000000	10.374262
3838.000000	10.380209
3837.000000	10.381672
3836.000000	10.378636
3835.000000	10.373678
3834.000000	10.369742
3833.000000	10.367943
3832.000000	10.367291
3831.000000	10.366266
3830.000000	10.364448
3829.000000	10.362677
3828.000000	10.361901
3827.000000	10.362287
3826.000000	10.363572
3825.000000	10.365964
3824.000000	10.370086
3823.000000	10.375692
3822.000000	10.380797
3821.000000	10.382900
3820.000000	10.381480
3819.000000	10.379010
3818.000000	10.378758
3817.000000	10.381401
3816.000000	10.384134
3815.000000	10.383421
3814.000000	10.378494
3813.000000	10.371861
3812.000000	10.366850
3811.000000	10.365232
3810.000000	10.366913
3809.000000	10.370670
3808.000000	10.374573
3807.000000	10.376523
3806.000000	10.375734
3805.000000	10.373887
3804.000000	10.373871
3803.000000	10.376728
3802.000000	10.380112
3801.000000	10.380418
3800.000000	10.376429
3799.000000	10.370383
3798.000000	10.365470
3797.000000	10.362785
3796.000000	10.360991
3795.000000	10.358432
3794.000000	10.355014
3793.000000	10.351977
3792.000000	10.350340
3791.000000	10.349944
3790.000000	10.349883
3789.000000	10.349469
3788.000000	10.348661
3787.000000	10.347723
3786.000000	10.346749
3785.000000	10.345577
3784.000000	10.344108
3783.000000	10.342588
3782.000000	10.341463
3781.000000	10.340862
3780.000000	10.340304
3779.000000	10.339099
3778.000000	10.337104
3777.000000	10.334910
3776.000000	10.333180
3775.000000	10.332004
3774.000000	10.331094
3773.000000	10.330426
3772.000000	10.330249
3771.000000	10.330367
3770.000000	10.329877
3769.000000	10.328009
3768.000000	10.325071
3767.000000	10.322183
3766.000000	10.320065
3765.000000	10.318399
3764.000000	10.316525
3763.000000	10.314483
3762.000000	10.313041
3761.000000	10.312698
3760.000000	10.312882
3759.000000	10.312274
3758.000000	10.310018
3757.000000	10.306687
3756.000000	10.304122
3755.000000	10.304290
3754.000000	10.307966
3753.000000	10.314137
3752.000000	10.320281
3751.000000	10.323333
3750.000000	10.321288
3749.000000	10.314856
3748.000000	10.307793
3747.000000	10.304619
3746.000000	10.306799
3745.000000	10.310842
3744.000000	10.310852
3743.000000	10.303730
3742.000000	10.291784
3741.000000	10.280404
3740.000000	10.273743
3739.000000	10.272475
3738.000000	10.274648
3737.000000	10.277599
3736.000000	10.279223
3735.000000	10.278503
3734.000000	10.275510
3733.000000	10.270827
3732.000000	10.264869
3731.000000	10.257916
3730.000000	10.250803
3729.000000	10.244954
3728.000000	10.241251
3727.000000	10.239071
3726.000000	10.236860
3725.000000	10.233646
3724.000000	10.229632
3723.000000	10.225364
3722.000000	10.220848
3721.000000	10.215712
3720.000000	10.209877
3719.000000	10.203682
3718.000000	10.197532
3717.000000	10.191904
3716.000000	10.187696
3715.000000	10.185797
3714.000000	10.185430
3713.000000	10.182936
3712.000000	10.173315
3711.000000	10.154371
3710.000000	10.129773
3709.000000	10.107348
3708.000000	10.093520
3707.000000	10.088980
3706.000000	10.089393
3705.000000	10.089808
3704.000000	10.087972
3703.000000	10.084060
3702.000000	10.078546
3701.000000	10.071232
3700.000000	10.061953
3699.000000	10.051290
3698.000000	10.040215
3697.000000	10.029349
3696.000000	10.018805
3695.000000	10.008549
3694.000000	9.998732
3693.000000	9.989792
3692.000000	9.982291
3691.000000	9.976273
3690.000000	9.970414
3689.000000	9.962045
3688.000000	9.948751
3687.000000	9.930471
3686.000000	9.909841
3685.000000	9.890224
3684.000000	9.873344
3683.000000	9.858637
3682.000000	9.844482
3681.000000	9.829869
3680.000000	9.815160
3679.000000	9.801687
3678.000000	9.790345
3677.000000	9.780050
3676.000000	9.767717
3675.000000	9.750628
3674.000000	9.729368
3673.000000	9.707806
3672.000000	9.689492
3671.000000	9.674194
3670.000000	9.658408
3669.000000	9.639174
3668.000000	9.616865
3667.000000	9.594174
3666.000000	9.573259
3665.000000	9.554377
3664.000000	9.536699
3663.000000	9.519562
3662.000000	9.502809
3661.000000	9.486574
3660.000000	9.471130
3659.000000	9.456663
3658.000000	9.442817
3657.000000	9.428537
3656.000000	9.412799
3655.000000	9.395771
3654.000000	9.379135
3653.000000	9.364983
3652.000000	9.354114
3651.000000	9.345234
3650.000000	9.335733
3649.000000	9.323396
3648.000000	9.307743
3647.000000	9.290107
3646.000000	9.272599
3645.000000	9.256779
3644.000000	9.242985
3643.000000	9.230626
3642.000000	9.219001
3641.000000	9.207805
3640.000000	9.196964
3639.000000	9.186362
3638.000000	9.175990
3637.000000	9.166210
3636.000000	9.157418
3635.000000	9.149440
3634.000000	9.141706
3633.000000	9.134296
3632.000000	9.128349
3631.000000	9.124731
3630.000000	9.122297
3629.000000	9.118146
3628.000000	9.110083
3627.000000	9.098680
3626.000000	9.086603
3625.000000	9.076243
3624.000000	9.068310
3623.000000	9.062418
3622.000000	9.058131
3621.000000	9.055012
3620.000000	9.052070
3619.000000	9.047990
3618.000000	9.042210
3617.000000	9.035565
3616.000000	9.029573
3615.000000	9.025099
3614.000000	9.021746
3613.000000	9.018516
3612.000000	9.014861
3611.000000	9.011017
3610.000000	9.007418
3609.000000	9.004016
3608.000000	9.000399
3607.000000	8.996471
3606.000000	8.992630
3605.000000	8.989029
3604.000000	8.984870
3603.000000	8.978958
3602.000000	8.971195
3601.000000	8.963271
3600.000000	8.957557
3599.000000	8.955216
3598.000000	8.955513
3597.000000	8.956751
3596.000000	8.957638
3595.000000	8.957728
3594.000000	8.957091
3593.000000	8.955997
3592.000000	8.954940
3591.000000	8.954519
3590.000000	8.954933
3589.000000	8.955588
3588.000000	8.955447
3587.000000	8.953896
3586.000000	8.951285
3585.000000	8.948526
3584.000000	8.946249
3583.000000	8.944439
3582.000000	8.942813
3581.000000	8.941370
3580.000000	8.940442
3579.000000	8.940293
3578.000000	8.940778
3577.000000	8.941394
3576.000000	8.941583
3575.000000	8.941016
3574.000000	8.939711
3573.000000	8.938022
3572.000000	8.936588
3571.000000	8.936187
3570.000000	8.937345
3569.000000	8.939778
3568.000000	8.942210
3567.000000	8.943072
3566.000000	8.941695
3565.000000	8.938853
3564.000000	8.936022
3563.000000	8.934159
3562.000000	8.933256
3561.000000	8.932869
3560.000000	8.932695
3559.000000	8.932593
3558.000000	8.932369
3557.000000	8.931900
3556.000000	8.931391
3555.000000	8.931235
3554.000000	8.931541
3553.000000	8.931925
3552.000000	8.931891
3551.000000	8.931332
3550.000000	8.930587
3549.000000	8.930054
3548.000000	8.929854
3547.000000	8.929840
3546.000000	8.929779
3545.000000	8.929439
3544.000000	8.928631
3543.000000	8.927342
3542.000000	8.925870
3541.000000	8.924675
3540.000000	8.923982
3539.000000	8.923592
3538.000000	8.923141
3537.000000	8.922514
3536.000000	8.921915
3535.000000	8.921563
3534.000000	8.921435
3533.000000	8.921345
3532.000000	8.921198
3531.000000	8.921116
3530.000000	8.921310
3529.000000	8.921820
3528.000000	8.922379
3527.000000	8.922589
3526.000000	8.922272
3525.000000	8.921588
3524.000000	8.920713
3523.000000	8.919510
3522.000000	8.917676
3521.000000	8.915233
3520.000000	8.912696
3519.000000	8.910666
3518.000000	8.909336
3517.000000	8.908488
3516.000000	8.907843
3515.000000	8.907279
3514.000000	8.906748
3513.000000	8.906163
3512.000000	8.905444
3511.000000	8.904586
3510.000000	8.903590
3509.000000	8.902378
3508.000000	8.900889
3507.000000	8.899284
3506.000000	8.897949
3505.000000	8.897142
3504.000000	8.896644
3503.000000	8.895833
3502.000000	8.894211
3501.000000	8.891883
3500.000000	8.889474
3499.000000	8.887604
3498.000000	8.886415
3497.000000	8.885529
3496.000000	8.884376
3495.000000	8.882632
3494.000000	8.880443
3493.000000	8.878299
3492.000000	8.876629
3491.000000	8.875495
3490.000000	8.874664
3489.000000	8.873881
3488.000000	8.872999
3487.000000	8.871874
3486.000000	8.870343
3485.000000	8.868375
3484.000000	8.866175
3483.000000	8.864047
3482.000000	8.862167
3481.000000	8.860510
3480.000000	8.858952
3479.000000	8.857410
3478.000000	8.855879
3477.000000	8.854396
3476.000000	8.852924
3475.000000	8.851318
3474.000000	8.849431
3473.000000	8.847271
3472.000000	8.844969
3471.000000	8.842597
3470.000000	8.840078
3469.000000	8.837329
3468.000000	8.834418
3467.000000	8.831527
3466.000000	8.828837
3465.000000	8.826500
3464.000000	8.824637
3463.000000	8.823208
3462.000000	8.821871
3461.000000	8.820084
3460.000000	8.817470
3459.000000	8.814146
3458.000000	8.810693
3457.000000	8.807757
3456.000000	8.805583
3455.000000	8.803862
3454.000000	8.802048
3453.000000	8.799821
3452.000000	8.797243
3451.000000	8.794500
3450.000000	8.791629
3449.000000	8.788567
3448.000000	8.785387
3447.000000	8.782334
3446.000000	8.779627
3445.000000	8.777287
3444.000000	8.775160
3443.000000	8.773050
3442.000000	8.770814
3441.000000	8.768385
3440.000000	8.765758
3439.000000	8.762951
3438.000000	8.760018
3437.000000	8.757091
3436.000000	8.754372
3435.000000	8.751965
3434.000000	8.749723
3433.000000	8.747319
3432.000000	8.744507
3431.000000	8.741315
3430.000000	8.737971
3429.000000	8.734712
3428.000000	8.731678
3427.000000	8.728902
3426.000000	8.726309
3425.000000	8.723712
3424.000000	8.720906
3423.000000	8.717863
3422.000000	8.714837
3421.000000	8.712199
3420.000000	8.710086
3419.000000	8.708233
3418.000000	8.706201
3417.000000	8.703775
3416.000000	8.701119
3415.000000	8.698583
3414.000000	8.696397
3413.000000	8.694525
3412.000000	8.692688
3411.000000	8.690492
3410.000000	8.687689
3409.000000	8.684455
3408.000000	8.681376
3407.000000	8.679038
3406.000000	8.677589
3405.000000	8.676740
3404.000000	8.676115
3403.000000	8.675485
3402.000000	8.674705
3401.000000	8.673624
3400.000000	8.672186
3399.000000	8.670515
3398.000000	8.668781
3397.000000	8.667066
3396.000000	8.665459
3395.000000	8.664204
3394.000000	8.663505
3393.000000	8.663135
3392.000000	8.662429
3391.000000	8.660845
3390.000000	8.658496
3389.000000	8.656040
3388.000000	8.654077
3387.000000	8.652757
3386.000000	8.651863
3385.000000	8.651068
3384.000000	8.650068
3383.000000	8.648705
3382.000000	8.647143
3381.000000	8.645823
3380.000000	8.645089
3379.000000	8.644844
3378.000000	8.644655
3377.000000	8.644127
3376.000000	8.643117
3375.000000	8.641698
3374.000000	8.640143
3373.000000	8.638904
3372.000000	8.638336
3371.000000	8.638314
3370.000000	8.638277
3369.000000	8.637778
3368.000000	8.636895
3367.000000	8.635992
3366.000000	8.635228
3365.000000	8.634438
3364.000000	8.633434
3363.000000	8.632240
3362.000000	8.631051
3361.000000	8.630073
3360.000000	8.629397
3359.000000	8.628928
3358.000000	8.628447
3357.000000	8.627844
3356.000000	8.627259
3355.000000	8.626885
3354.000000	8.626655
3353.000000	8.626263
3352.000000	8.625519
3351.000000	8.624554
3350.000000	8.623655
3349.000000	8.623016
3348.000000	8.622697
3347.000000	8.622660
3346.000000	8.622734
3345.000000	8.622635
3344.000000	8.622128
3343.000000	8.621203
3342.000000	8.620056
3341.000000	8.618979
3340.000000	8.618251
3339.000000	8.618009
3338.000000	8.618109
3337.000000	8.618179
3336.000000	8.617968
3335.000000	8.617613
3334.000000	8.617436
3333.000000	8.617465
3332.000000	8.617302
3331.000000	8.616554
3330.000000	8.615329
3329.000000	8.614208
3328.000000	8.613711
3327.000000	8.613816
3326.000000	8.614001
3325.000000	8.613717
3324.000000	8.612811
3323.000000	8.611553
3322.000000	8.610331
3321.000000	8.609366
3320.000000	8.608683
3319.000000	8.608226
3318.000000	8.607936
3317.000000	8.607715
3316.000000	8.607398
3315.000000	8.606819
3314.000000	8.605926
3313.000000	8.604828
3312.000000	8.603734
3311.000000	8.602830
3310.000000	8.602194
3309.000000	8.601801
3308.000000	8.601562
3307.000000	8.601347
3306.000000	8.600998
3305.000000	8.600378
3304.000000	8.599443
3303.000000	8.598284
3302.000000	8.597079
3301.000000	8.596018
3300.000000	8.595204
3299.000000	8.594588
3298.000000	8.593994
3297.000000	8.593254
3296.000000	8.592351
3295.000000	8.591401
3294.000000	8.590508
3293.000000	8.589669
3292.000000	8.588797
3291.000000	8.587806
3290.000000	8.586655
3289.000000	8.585406
3288.000000	8.584247
3287.000000	8.583396
3286.000000	8.582911
3285.000000	8.582651
3284.000000	8.582457
3283.000000	8.582275
3282.000000	8.582034
3281.000000	8.581498
3280.000000	8.580437
3279.000000	8.578981
3278.000000	8.577657
3277.000000	8.576968
3276.000000	8.576938
3275.000000	8.577134
3274.000000	8.577096
3273.000000	8.576685
3272.000000	8.576035
3271.000000	8.575285
3270.000000	8.574447
3269.000000	8.573535
3268.000000	8.572703
3267.000000	8.572140
3266.000000	8.571807
3265.000000	8.571384
3264.000000	8.570549
3263.000000	8.569297
3262.000000	8.567921
3261.000000	8.566754
3260.000000	8.565991
3259.000000	8.565699
3258.000000	8.565814
3257.000000	8.566048
3256.000000	8.565944
3255.000000	8.565182
3254.000000	8.563860
3253.000000	8.562416
3252.000000	8.561287
3251.000000	8.560640
3250.000000	8.560317
3249.000000	8.559943
3248.000000	8.559134
3247.000000	8.557804
3246.000000	8.556331
3245.000000	8.555317
3244.000000	8.555060
3243.000000	8.555261
3242.000000	8.555315
3241.000000	8.554879
3240.000000	8.554083
3239.000000	8.553235
3238.000000	8.552461
3237.000000	8.551675
3236.000000	8.550802
3235.000000	8.549879
3234.000000	8.548937
3233.000000	8.547916
3232.000000	8.546777
3231.000000	8.545670
3230.000000	8.544883
3229.000000	8.544592
3228.000000	8.544647
3227.000000	8.544648
3226.000000	8.544214
3225.000000	8.543210
3224.000000	8.541753
3223.000000	8.540091
3222.000000	8.538501
3221.000000	8.537256
3220.000000	8.536543
3219.000000	8.536335
3218.000000	8.536392
3217.000000	8.536477
3216.000000	8.536571
3215.000000	8.536794
3214.000000	8.537133
3213.000000	8.537341
3212.000000	8.537187
3211.000000	8.536700
3210.000000	8.536101
3209.000000	8.535551
3208.000000	8.535091
3207.000000	8.534779
3206.000000	8.534711
3205.000000	8.534853
3204.000000	8.534945
3203.000000	8.534715
3202.000000	8.534184
3201.000000	8.533713
3200.000000	8.533690
3199.000000	8.534167
3198.000000	8.534794
3197.000000	8.535113
3196.000000	8.534957
3195.000000	8.534554
3194.000000	8.534266
3193.000000	8.534247
3192.000000	8.534403
3191.000000	8.534591
3190.000000	8.534760
3189.000000	8.534893
3188.000000	8.534937
3187.000000	8.534865
3186.000000	8.534759
3185.000000	8.534783
3184.000000	8.535083
3183.000000	8.535725
3182.000000	8.536635
3181.000000	8.537551
3180.000000	8.538116
3179.000000	8.538152
3178.000000	8.537817
3177.000000	8.537427
3176.000000	8.537150
3175.000000	8.536951
3174.000000	8.536838
3173.000000	8.536980
3172.000000	8.537508
3171.000000	8.538277
3170.000000	8.538937
3169.000000	8.539257
3168.000000	8.539280
3167.000000	8.539183
3166.000000	8.539048
3165.000000	8.538853
3164.000000	8.538607
3163.000000	8.538405
3162.000000	8.538290
3161.000000	8.538153
3160.000000	8.537859
3159.000000	8.537468
3158.000000	8.537241
3157.000000	8.537380
3156.000000	8.537825
3155.000000	8.538343
3154.000000	8.538760
3153.000000	8.539008
3152.000000	8.539025
3151.000000	8.538727
3150.000000	8.538149
3149.000000	8.537521
3148.000000	8.537122
3147.000000	8.537056
3146.000000	8.537211
3145.000000	8.537409
3144.000000	8.537564
3143.000000	8.537691
3142.000000	8.537820
3141.000000	8.537933
3140.000000	8.537974
3139.000000	8.537902
3138.000000	8.537705
3137.000000	8.537411
3136.000000	8.537094
3135.000000	8.536861
3134.000000	8.536759
3133.000000	8.536680
3132.000000	8.536424
3131.000000	8.535901
3130.000000	8.535246
3129.000000	8.534710
3128.000000	8.534467
3127.000000	8.534548
3126.000000	8.534889
3125.000000	8.535327
3124.000000	8.535592
3123.000000	8.535457
3122.000000	8.534998
3121.000000	8.534627
3120.000000	8.534754
3119.000000	8.535386
3118.000000	8.536104
3117.000000	8.536422
3116.000000	8.536166
3115.000000	8.535556
3114.000000	8.534977
3113.000000	8.534668
3112.000000	8.534588
3111.000000	8.534576
3110.000000	8.534631
3109.000000	8.534963
3108.000000	8.535724
3107.000000	8.536710
3106.000000	8.537475
3105.000000	8.537773
3104.000000	8.537844
3103.000000	8.538190
3102.000000	8.539095
3101.000000	8.540390
3100.000000	8.541665
3099.000000	8.542641
3098.000000	8.543322
3097.000000	8.543839
3096.000000	8.544242
3095.000000	8.544500
3094.000000	8.544686
3093.000000	8.545090
3092.000000	8.546014
3091.000000	8.547439
3090.000000	8.548953
3089.000000	8.550126
3088.000000	8.550940
3087.000000	8.551770
3086.000000	8.552959
3085.000000	8.554484
3084.000000	8.556082
3083.000000	8.557551
3082.000000	8.558839
3081.000000	8.559914
3080.000000	8.560745
3079.000000	8.561450
3078.000000	8.562338
3077.000000	8.563674
3076.000000	8.565410
3075.000000	8.567199
3074.000000	8.568676
3073.000000	8.569718
3072.000000	8.570482
3071.000000	8.571274
3070.000000	8.572367
3069.000000	8.573888
3068.000000	8.575760
3067.000000	8.577725
3066.000000	8.579443
3065.000000	8.580708
3064.000000	8.581634
3063.000000	8.582585
3062.000000	8.583819
3061.000000	8.585236
3060.000000	8.586544
3059.000000	8.587666
3058.000000	8.588837
3057.000000	8.590294
3056.000000	8.592021
3055.000000	8.593849
3054.000000	8.595667
3053.000000	8.597447
3052.000000	8.599170
3051.000000	8.600863
3050.000000	8.602601
3049.000000	8.604343
3048.000000	8.605864
3047.000000	8.607058
3046.000000	8.608232
3045.000000	8.609825
3044.000000	8.611806
3043.000000	8.613605
3042.000000	8.614740
3041.000000	8.615343
3040.000000	8.615922
3039.000000	8.616802
3038.000000	8.617983
3037.000000	8.619436
3036.000000	8.621237
3035.000000	8.623384
3034.000000	8.625637
3033.000000	8.627650
3032.000000	8.629229
3031.000000	8.630467
3030.000000	8.631684
3029.000000	8.633211
3028.000000	8.635126
3027.000000	8.637169
3026.000000	8.638990
3025.000000	8.640507
3024.000000	8.641972
3023.000000	8.643699
3022.000000	8.645826
3021.000000	8.648304
3020.000000	8.650986
3019.000000	8.653609
3018.000000	8.655829
3017.000000	8.657467
3016.000000	8.658738
3015.000000	8.660134
3014.000000	8.662007
3013.000000	8.664322
3012.000000	8.666791
3011.000000	8.669169
3010.000000	8.671341
3009.000000	8.673234
3008.000000	8.674847
3007.000000	8.676402
3006.000000	8.678334
3005.000000	8.680949
3004.000000	8.684093
3003.000000	8.687258
3002.000000	8.690054
3001.000000	8.692521
3000.000000	8.694973
2999.000000	8.697635
2998.000000	8.700499
2997.000000	8.703481
2996.000000	8.706598
2995.000000	8.709945
2994.000000	8.713520
2993.000000	8.717112
2992.000000	8.720395
2991.000000	8.723175
2990.000000	8.725604
2989.000000	8.728089
2988.000000	8.730929
2987.000000	8.734032
2986.000000	8.737044
2985.000000	8.739758
2984.000000	8.742339
2983.000000	8.745151
2982.000000	8.748407
2981.000000	8.751998
2980.000000	8.755580
2979.000000	8.758802
2978.000000	8.761555
2977.000000	8.764095
2976.000000	8.766892
2975.000000	8.770220
2974.000000	8.773863
2973.000000	8.777308
2972.000000	8.780274
2971.000000	8.782981
2970.000000	8.785862
2969.000000	8.789098
2968.000000	8.792537
2967.000000	8.796029
2966.000000	8.799667
2965.000000	8.803649
2964.000000	8.808010
2963.000000	8.812586
2962.000000	8.817172
2961.000000	8.821643
2960.000000	8.825959
2959.000000	8.830163
2958.000000	8.834386
2957.000000	8.838777
2956.000000	8.843406
2955.000000	8.848200
2954.000000	8.852956
2953.000000	8.857408
2952.000000	8.861383
2951.000000	8.865017
2950.000000	8.868754
2949.000000	8.872992
2948.000000	8.877668
2947.000000	8.882282
2946.000000	8.886358
2945.000000	8.889821
2944.000000	8.892938
2943.000000	8.896037
2942.000000	8.899399
2941.000000	8.903282
2940.000000	8.907840
2939.000000	8.912960
2938.000000	8.918234
2937.000000	8.923186
2936.000000	8.927573
2935.000000	8.931544
2934.000000	8.935524
2933.000000	8.939858
2932.000000	8.944486
2931.000000	8.949003
2930.000000	8.953084
2929.000000	8.956814
2928.000000	8.960565
2927.000000	8.964592
2926.000000	8.968837
2925.000000	8.973076
2924.000000	8.977183
2923.000000	8.981269
2922.000000	8.985626
2921.000000	8.990501
2920.000000	8.995828
2919.000000	9.001185
2918.000000	9.006096
2917.000000	9.010412
2916.000000	9.014347
2915.000000	9.018187
2914.000000	9.022062
2913.000000	9.025976
2912.000000	9.029942
2911.000000	9.034027
2910.000000	9.038320
2909.000000	9.042876
2908.000000	9.047632
2907.000000	9.052364
2906.000000	9.056818
2905.000000	9.060924
2904.000000	9.064828
2903.000000	9.068687
2902.000000	9.072499
2901.000000	9.076196
2900.000000	9.079827
2899.000000	9.083570
2898.000000	9.087585
2897.000000	9.091929
2896.000000	9.096540
2895.000000	9.101232
2894.000000	9.105715
2893.000000	9.109747
2892.000000	9.113321
2891.000000	9.116680
2890.000000	9.120108
2889.000000	9.123726
2888.000000	9.127471
2887.000000	9.131228
2886.000000	9.134940
2885.000000	9.138637
2884.000000	9.142394
2883.000000	9.146268
2882.000000	9.150241
2881.000000	9.154194
2880.000000	9.157984
2879.000000	9.161560
2878.000000	9.165022
2877.000000	9.168519
2876.000000	9.172102
2875.000000	9.175715
2874.000000	9.179318
2873.000000	9.182928
2872.000000	9.186501
2871.000000	9.189871
2870.000000	9.192939
2869.000000	9.195889
2868.000000	9.199056
2867.000000	9.202570
2866.000000	9.206241
2865.000000	9.209873
2864.000000	9.213531
2863.000000	9.217393
2862.000000	9.221424
2861.000000	9.225365
2860.000000	9.229011
2859.000000	9.232373
2858.000000	9.235551
2857.000000	9.238568
2856.000000	9.241398
2855.000000	9.244101
2854.000000	9.246861
2853.000000	9.249886
2852.000000	9.253209
2851.000000	9.256576
2850.000000	9.259574
2849.000000	9.261956
2848.000000	9.263838
2847.000000	9.265535
2846.000000	9.267288
2845.000000	9.269268
2844.000000	9.271740
2843.000000	9.274941
2842.000000	9.278655
2841.000000	9.282121
2840.000000	9.284594
2839.000000	9.286035
2838.000000	9.287127
2837.000000	9.288641
2836.000000	9.290807
2835.000000	9.293248
2834.000000	9.295410
2833.000000	9.297091
2832.000000	9.298640
2831.000000	9.300643
2830.000000	9.303321
2829.000000	9.306275
2828.000000	9.308932
2827.000000	9.311173
2826.000000	9.313335
2825.000000	9.315639
2824.000000	9.317898
2823.000000	9.319921
2822.000000	9.321944
2821.000000	9.324380
2820.000000	9.327226
2819.000000	9.330001
2818.000000	9.332324
2817.000000	9.334310
2816.000000	9.336295
2815.000000	9.338344
2814.000000	9.340209
2813.000000	9.341736
2812.000000	9.343107
2811.000000	9.344640
2810.000000	9.346427
2809.000000	9.348269
2808.000000	9.349937
2807.000000	9.351421
2806.000000	9.352895
2805.000000	9.354480
2804.000000	9.356128
2803.000000	9.357731
2802.000000	9.359276
2801.000000	9.360868
2800.000000	9.362633
2799.000000	9.364634
2798.000000	9.366810
2797.000000	9.368941
2796.000000	9.370745
2795.000000	9.372117
2794.000000	9.373267
2793.000000	9.374523
2792.000000	9.375984
2791.000000	9.377431
2790.000000	9.378609
2789.000000	9.379526
2788.000000	9.380436
2787.000000	9.381564
2786.000000	9.382904
2785.000000	9.384262
2784.000000	9.385475
2783.000000	9.386595
2782.000000	9.387861
2781.000000	9.389471
2780.000000	9.391364
2779.000000	9.393237
2778.000000	9.394752
2777.000000	9.395732
2776.000000	9.396251
2775.000000	9.396581
2774.000000	9.397038
2773.000000	9.397760
2772.000000	9.398652
2771.000000	9.399590
2770.000000	9.400619
2769.000000	9.401837
2768.000000	9.403132
2767.000000	9.404225
2766.000000	9.405025
2765.000000	9.405775
2764.000000	9.406715
2763.000000	9.407760
2762.000000	9.408640
2761.000000	9.409315
2760.000000	9.410039
2759.000000	9.411037
2758.000000	9.412241
2757.000000	9.413380
2756.000000	9.414207
2755.000000	9.414614
2754.000000	9.414634
2753.000000	9.414437
2752.000000	9.414303
2751.000000	9.414507
2750.000000	9.415177
2749.000000	9.416253
2748.000000	9.417547
2747.000000	9.418815
2746.000000	9.419806
2745.000000	9.420329
2744.000000	9.420358
2743.000000	9.420083
2742.000000	9.419786
2741.000000	9.419613
2740.000000	9.419528
2739.000000	9.419505
2738.000000	9.419688
2737.000000	9.420225
2736.000000	9.421027
2735.000000	9.421832
2734.000000	9.422505
2733.000000	9.423143
2732.000000	9.423835
2731.000000	9.424510
2730.000000	9.425050
2729.000000	9.425438
2728.000000	9.425669
2727.000000	9.425682
2726.000000	9.425490
2725.000000	9.425293
2724.000000	9.425320
2723.000000	9.425600
2722.000000	9.425975
2721.000000	9.426277
2720.000000	9.426408
2719.000000	9.426348
2718.000000	9.426204
2717.000000	9.426177
2716.000000	9.426318
2715.000000	9.426372
2714.000000	9.426022
2713.000000	9.425279
2712.000000	9.424499
2711.000000	9.424003
2710.000000	9.423837
2709.000000	9.423879
2708.000000	9.424036
2707.000000	9.424271
2706.000000	9.424506
2705.000000	9.424599
2704.000000	9.424391
2703.000000	9.423838
2702.000000	9.423099
2701.000000	9.422441
2700.000000	9.421967
2699.000000	9.421524
2698.000000	9.420964
2697.000000	9.420382
2696.000000	9.419934
2695.000000	9.419552
2694.000000	9.419036
2693.000000	9.418391
2692.000000	9.417799
2691.000000	9.417293
2690.000000	9.416703
2689.000000	9.415970
2688.000000	9.415244
2687.000000	9.414555
2686.000000	9.413652
2685.000000	9.412357
2684.000000	9.410889
2683.000000	9.409656
2682.000000	9.408824
2681.000000	9.408250
2680.000000	9.407706
2679.000000	9.407002
2678.000000	9.405980
2677.000000	9.404608
2676.000000	9.403079
2675.000000	9.401683
2674.000000	9.400583
2673.000000	9.399771
2672.000000	9.399184
2671.000000	9.398717
2670.000000	9.398169
2669.000000	9.397359
2668.000000	9.396302
2667.000000	9.395186
2666.000000	9.394150
2665.000000	9.393142
2664.000000	9.391999
2663.000000	9.390600
2662.000000	9.388951
2661.000000	9.387197
2660.000000	9.385532
2659.000000	9.384056
2658.000000	9.382691
2657.000000	9.381262
2656.000000	9.379620
2655.000000	9.377702
2654.000000	9.375564
2653.000000	9.373439
2652.000000	9.371643
2651.000000	9.370311
2650.000000	9.369247
2649.000000	9.368129
2648.000000	9.366804
2647.000000	9.365304
2646.000000	9.363664
2645.000000	9.361864
2644.000000	9.359883
2643.000000	9.357703
2642.000000	9.355281
2641.000000	9.352705
2640.000000	9.350298
2639.000000	9.348350
2638.000000	9.346730
2637.000000	9.344983
2636.000000	9.342892
2635.000000	9.340749
2634.000000	9.338970
2633.000000	9.337586
2632.000000	9.336281
2631.000000	9.334781
2630.000000	9.333035
2629.000000	9.331129
2628.000000	9.329224
2627.000000	9.327536
2626.000000	9.326152
2625.000000	9.324787
2624.000000	9.322921
2623.000000	9.320276
2622.000000	9.317107
2621.000000	9.313965
2620.000000	9.311270
2619.000000	9.309140
2618.000000	9.307489
2617.000000	9.306105
2616.000000	9.304655
2615.000000	9.302800
2614.000000	9.300418
2613.000000	9.297703
2612.000000	9.294990
2611.000000	9.292495
2610.000000	9.290215
2609.000000	9.288043
2608.000000	9.285909
2607.000000	9.283810
2606.000000	9.281739
2605.000000	9.279625
2604.000000	9.277382
2603.000000	9.274991
2602.000000	9.272518
2601.000000	9.270033
2600.000000	9.267552
2599.000000	9.265072
2598.000000	9.262625
2597.000000	9.260265
2596.000000	9.257992
2595.000000	9.255748
2594.000000	9.253458
2593.000000	9.251048
2592.000000	9.248443
2591.000000	9.245639
2590.000000	9.242806
2589.000000	9.240217
2588.000000	9.237996
2587.000000	9.235953
2586.000000	9.233737
2585.000000	9.231160
2584.000000	9.228368
2583.000000	9.225697
2582.000000	9.223372
2581.000000	9.221298
2580.000000	9.219130
2579.000000	9.216573
2578.000000	9.213637
2577.000000	9.210567
2576.000000	9.207553
2575.000000	9.204602
2574.000000	9.201694
2573.000000	9.198907
2572.000000	9.196274
2571.000000	9.193634
2570.000000	9.190788
2569.000000	9.187760
2568.000000	9.184736
2567.000000	9.181768
2566.000000	9.178701
2565.000000	9.175416
2564.000000	9.172026
2563.000000	9.168767
2562.000000	9.165792
2561.000000	9.163074
2560.000000	9.160412
2559.000000	9.157523
2558.000000	9.154254
2557.000000	9.150774
2556.000000	9.147439
2555.000000	9.144409
2554.000000	9.141490
2553.000000	9.138395
2552.000000	9.135047
2551.000000	9.131545
2550.000000	9.127987
2549.000000	9.124460
2548.000000	9.121089
2547.000000	9.117922
2546.000000	9.114795
2545.000000	9.111478
2544.000000	9.107962
2543.000000	9.104466
2542.000000	9.101153
2541.000000	9.097946
2540.000000	9.094665
2539.000000	9.091252
2538.000000	9.087795
2537.000000	9.084390
2536.000000	9.081017
2535.000000	9.077564
2534.000000	9.073956
2533.000000	9.070254
2532.000000	9.066588
2531.000000	9.062962
2530.000000	9.059218
2529.000000	9.055288
2528.000000	9.051410
2527.000000	9.047938
2526.000000	9.044904
2525.000000	9.041923
2524.000000	9.038603
2523.000000	9.034941
2522.000000	9.031243
2521.000000	9.027729
2520.000000	9.024356
2519.000000	9.020992
2518.000000	9.017589
2517.000000	9.014158
2516.000000	9.010658
2515.000000	9.007034
2514.000000	9.003309
2513.000000	8.999583
2512.000000	8.995938
2511.000000	8.992409
2510.000000	8.989034
2509.000000	8.985849
2508.000000	8.982802
2507.000000	8.979744
2506.000000	8.976550
2505.000000	8.973236
2504.000000	8.969912
2503.000000	8.966669
2502.000000	8.963568
2501.000000	8.960702
2500.000000	8.958159
2499.000000	8.955897
2498.000000	8.953727
2497.000000	8.951464
2496.000000	8.949037
2495.000000	8.946439
2494.000000	8.943680
2493.000000	8.940883
2492.000000	8.938349
2491.000000	8.936363
2490.000000	8.934870
2489.000000	8.933446
2488.000000	8.931673
2487.000000	8.929521
2486.000000	8.927315
2485.000000	8.925372
2484.000000	8.923752
2483.000000	8.922327
2482.000000	8.920994
2481.000000	8.919741
2480.000000	8.918569
2479.000000	8.917441
2478.000000	8.916320
2477.000000	8.915199
2476.000000	8.914095
2475.000000	8.913034
2474.000000	8.912024
2473.000000	8.910994
2472.000000	8.909775
2471.000000	8.908273
2470.000000	8.906679
2469.000000	8.905388
2468.000000	8.904604
2467.000000	8.904122
2466.000000	8.903587
2465.000000	8.902889
2464.000000	8.902170
2463.000000	8.901524
2462.000000	8.900897
2461.000000	8.900307
2460.000000	8.899917
2459.000000	8.899802
2458.000000	8.899787
2457.000000	8.899657
2456.000000	8.899433
2455.000000	8.899308
2454.000000	8.899401
2453.000000	8.899675
2452.000000	8.900052
2451.000000	8.900476
2450.000000	8.900874
2449.000000	8.901206
2448.000000	8.901569
2447.000000	8.902150
2446.000000	8.903009
2445.000000	8.903978
2444.000000	8.904825
2443.000000	8.905515
2442.000000	8.906275
2441.000000	8.907404
2440.000000	8.908974
2439.000000	8.910708
2438.000000	8.912177
2437.000000	8.913186
2436.000000	8.913979
2435.000000	8.915021
2434.000000	8.916546
2433.000000	8.918339
2432.000000	8.919984
2431.000000	8.921296
2430.000000	8.922484
2429.000000	8.923901
2428.000000	8.925672
2427.000000	8.927587
2426.000000	8.929326
2425.000000	8.930728
2424.000000	8.931846
2423.000000	8.932838
2422.000000	8.933918
2421.000000	8.935344
2420.000000	8.937300
2419.000000	8.939703
2418.000000	8.942195
2417.000000	8.944402
2416.000000	8.946238
2415.000000	8.947955
2414.000000	8.949925
2413.000000	8.952310
2412.000000	8.954820
2411.000000	8.956814
2410.000000	8.957819
2409.000000	8.958055
2408.000000	8.958317
2407.000000	8.959244
2406.000000	8.960782
2405.000000	8.962473
2404.000000	8.964084
2403.000000	8.965732
2402.000000	8.967488
2401.000000	8.969166
2400.000000	8.970600
2399.000000	8.971907
2398.000000	8.973326
2397.000000	8.974913
2396.000000	8.976557
2395.000000	8.978201
2394.000000	8.979877
2393.000000	8.981539
2392.000000	8.983000
2391.000000	8.984098
2390.000000	8.984870
2389.000000	8.985489
2388.000000	8.986063
2387.000000	8.986475
2386.000000	8.986347
2385.000000	8.985021
2384.000000	8.981542
2383.000000	8.974815
2382.000000	8.964111
2381.000000	8.949758
2380.000000	8.933455
2379.000000	8.917739
2378.000000	8.904819
2377.000000	8.895635
2376.000000	8.889791
2375.000000	8.886274
2374.000000	8.884246
2373.000000	8.883315
2372.000000	8.883336
2371.000000	8.884158
2370.000000	8.885579
2369.000000	8.887433
2368.000000	8.889545
2367.000000	8.891559
2366.000000	8.892880
2365.000000	8.892879
2364.000000	8.891200
2363.000000	8.887848
2362.000000	8.883005
2361.000000	8.876832
2360.000000	8.869459
2359.000000	8.861082
2358.000000	8.851962
2357.000000	8.842297
2356.000000	8.832160
2355.000000	8.821561
2354.000000	8.810526
2353.000000	8.799173
2352.000000	8.787896
2351.000000	8.777662
2350.000000	8.769966
2349.000000	8.766061
2348.000000	8.765839
2347.000000	8.767435
2346.000000	8.768128
2345.000000	8.765837
2344.000000	8.760069
2343.000000	8.751920
2342.000000	8.743716
2341.000000	8.738538
2340.000000	8.739217
2339.000000	8.746836
2338.000000	8.759876
2337.000000	8.775046
2336.000000	8.789169
2335.000000	8.800517
2334.000000	8.808755
2333.000000	8.814227
2332.000000	8.817497
2331.000000	8.819249
2330.000000	8.820126
2329.000000	8.820537
2328.000000	8.820650
2327.000000	8.820558
2326.000000	8.820355
2325.000000	8.820112
2324.000000	8.819904
2323.000000	8.819855
2322.000000	8.820030
2321.000000	8.820255
2320.000000	8.820171
2319.000000	8.819550
2318.000000	8.818525
2317.000000	8.817440
2316.000000	8.816515
2315.000000	8.815717
2314.000000	8.814955
2313.000000	8.814283
2312.000000	8.813845
2311.000000	8.813636
2310.000000	8.813429
2309.000000	8.813003
2308.000000	8.812409
2307.000000	8.811915
2306.000000	8.811701
2305.000000	8.811677
2304.000000	8.811661
2303.000000	8.811625
2302.000000	8.811676
2301.000000	8.811845
2300.000000	8.812001
2299.000000	8.811981
2298.000000	8.811741
2297.000000	8.811353
2296.000000	8.810936
2295.000000	8.810602
2294.000000	8.810379
2293.000000	8.810184
2292.000000	8.809930
2291.000000	8.809705
2290.000000	8.809770
2289.000000	8.810290
2288.000000	8.810999
2287.000000	8.811113
2286.000000	8.809580
2285.000000	8.805700
2284.000000	8.799870
2283.000000	8.793814
2282.000000	8.789736
2281.000000	8.788808
2280.000000	8.790381
2279.000000	8.792732
2278.000000	8.794531
2277.000000	8.795511
2276.000000	8.796011
2275.000000	8.796303
2274.000000	8.796455
2273.000000	8.796509
2272.000000	8.796512
2271.000000	8.796444
2270.000000	8.796277
2269.000000	8.796038
2268.000000	8.795771
2267.000000	8.795481
2266.000000	8.795189
2265.000000	8.794937
2264.000000	8.794676
2263.000000	8.794280
2262.000000	8.793729
2261.000000	8.793188
2260.000000	8.792818
2259.000000	8.792621
2258.000000	8.792528
2257.000000	8.792473
2256.000000	8.792279
2255.000000	8.791676
2254.000000	8.790638
2253.000000	8.789584
2252.000000	8.788958
2251.000000	8.788684
2250.000000	8.788304
2249.000000	8.787636
2248.000000	8.787027
2247.000000	8.786873
2246.000000	8.787121
2245.000000	8.787381
2244.000000	8.787382
2243.000000	8.787176
2242.000000	8.786954
2241.000000	8.786792
2240.000000	8.786572
2239.000000	8.786134
2238.000000	8.785512
2237.000000	8.784974
2236.000000	8.784738
2235.000000	8.784698
2234.000000	8.784549
2233.000000	8.784168
2232.000000	8.783729
2231.000000	8.783431
2230.000000	8.783284
2229.000000	8.783199
2228.000000	8.783124
2227.000000	8.783032
2226.000000	8.782903
2225.000000	8.782771
2224.000000	8.782678
2223.000000	8.782523
2222.000000	8.782120
2221.000000	8.781492
2220.000000	8.780952
2219.000000	8.780782
2218.000000	8.780959
2217.000000	8.781298
2216.000000	8.781720
2215.000000	8.782186
2214.000000	8.782509
2213.000000	8.782489
2212.000000	8.782212
2211.000000	8.782003
2210.000000	8.782041
2209.000000	8.782219
2208.000000	8.782412
2207.000000	8.782662
2206.000000	8.782965
2205.000000	8.783059
2204.000000	8.782702
2203.000000	8.782141
2202.000000	8.782042
2201.000000	8.782794
2200.000000	8.784032
2199.000000	8.784988
2198.000000	8.785301
2197.000000	8.785287
2196.000000	8.785465
2195.000000	8.785997
2194.000000	8.786685
2193.000000	8.787329
2192.000000	8.787885
2191.000000	8.788375
2190.000000	8.788806
2189.000000	8.789162
2188.000000	8.789363
2187.000000	8.789286
2186.000000	8.788974
2185.000000	8.788762
2184.000000	8.788997
2183.000000	8.789631
2182.000000	8.790275
2181.000000	8.790695
2180.000000	8.791045
2179.000000	8.791562
2178.000000	8.792245
2177.000000	8.792965
2176.000000	8.793733
2175.000000	8.794676
2174.000000	8.795803
2173.000000	8.796938
2172.000000	8.797873
2171.000000	8.798542
2170.000000	8.799085
2169.000000	8.799766
2168.000000	8.800756
2167.000000	8.801961
2166.000000	8.803142
2165.000000	8.804198
2164.000000	8.805183
2163.000000	8.806042
2162.000000	8.806536
2161.000000	8.806599
2160.000000	8.806576
2159.000000	8.806934
2158.000000	8.807815
2157.000000	8.809043
2156.000000	8.810476
2155.000000	8.812114
2154.000000	8.813902
2153.000000	8.815626
2152.000000	8.817087
2151.000000	8.818274
2150.000000	8.819345
2149.000000	8.820507
2148.000000	8.821932
2147.000000	8.823647
2146.000000	8.825463
2145.000000	8.827087
2144.000000	8.828370
2143.000000	8.829412
2142.000000	8.830431
2141.000000	8.831581
2140.000000	8.832918
2139.000000	8.834444
2138.000000	8.836125
2137.000000	8.837885
2136.000000	8.839638
2135.000000	8.841336
2134.000000	8.842987
2133.000000	8.844613
2132.000000	8.846224
2131.000000	8.847866
2130.000000	8.849672
2129.000000	8.851802
2128.000000	8.854263
2127.000000	8.856832
2126.000000	8.859207
2125.000000	8.861249
2124.000000	8.863031
2123.000000	8.864668
2122.000000	8.866178
2121.000000	8.867512
2120.000000	8.868691
2119.000000	8.869917
2118.000000	8.871549
2117.000000	8.873880
2116.000000	8.876834
2115.000000	8.879954
2114.000000	8.882801
2113.000000	8.885327
2112.000000	8.887767
2111.000000	8.890262
2110.000000	8.892757
2109.000000	8.895205
2108.000000	8.897623
2107.000000	8.899946
2106.000000	8.902055
2105.000000	8.904000
2104.000000	8.906009
2103.000000	8.908226
2102.000000	8.910648
2101.000000	8.913330
2100.000000	8.916381
2099.000000	8.919651
2098.000000	8.922695
2097.000000	8.925230
2096.000000	8.927436
2095.000000	8.929676
2094.000000	8.932111
2093.000000	8.934762
2092.000000	8.937690
2091.000000	8.940863
2090.000000	8.944007
2089.000000	8.946878
2088.000000	8.949584
2087.000000	8.952388
2086.000000	8.955303
2085.000000	8.958162
2084.000000	8.961017
2083.000000	8.964154
2082.000000	8.967655
2081.000000	8.971205
2080.000000	8.974429
2079.000000	8.977280
2078.000000	8.980040
2077.000000	8.983063
2076.000000	8.986514
2075.000000	8.990220
2074.000000	8.993751
2073.000000	8.996751
2072.000000	8.999255
2071.000000	9.001650
2070.000000	9.004319
2069.000000	9.007375
2068.000000	9.010637
2067.000000	9.013799
2066.000000	9.016661
2065.000000	9.019322
2064.000000	9.022115
2063.000000	9.025304
2062.000000	9.028876
2061.000000	9.032643
2060.000000	9.036397
2059.000000	9.039923
2058.000000	9.043028
2057.000000	9.045735
2056.000000	9.048306
2055.000000	9.050927
2054.000000	9.053503
2053.000000	9.055960
2052.000000	9.058564
2051.000000	9.061654
2050.000000	9.065123
2049.000000	9.068451
2048.000000	9.071286
2047.000000	9.073774
2046.000000	9.076328
2045.000000	9.079266
2044.000000	9.082681
2043.000000	9.086394
2042.000000	9.089975
2041.000000	9.093017
2040.000000	9.095513
2039.000000	9.097871
2038.000000	9.100496
2037.000000	9.103427
2036.000000	9.106394
2035.000000	9.109132
2034.000000	9.111637
2033.000000	9.114219
2032.000000	9.117235
2031.000000	9.120670
2030.000000	9.124015
2029.000000	9.126749
2028.000000	9.128889
2027.000000	9.130962
2026.000000	9.133452
2025.000000	9.136433
2024.000000	9.139675
2023.000000	9.142898
2022.000000	9.145923
2021.000000	9.148753
2020.000000	9.151519
2019.000000	9.154214
2018.000000	9.156564
2017.000000	9.158370
2016.000000	9.159929
2015.000000	9.161834
2014.000000	9.164339
2013.000000	9.167151
2012.000000	9.169889
2011.000000	9.172470
2010.000000	9.174972
2009.000000	9.177375
2008.000000	9.179615
2007.000000	9.181707
2006.000000	9.183694
2005.000000	9.185582
2004.000000	9.187433
2003.000000	9.189364
2002.000000	9.191356
2001.000000	9.193241
2000.000000	9.194985
1999.000000	9.196838
1998.000000	9.199016
1997.000000	9.201348
1996.000000	9.203433
1995.000000	9.205106
1994.000000	9.206648
1993.000000	9.208516
1992.000000	9.210934
1991.000000	9.213694
1990.000000	9.216302
1989.000000	9.218339
1988.000000	9.219728
1987.000000	9.220649
1986.000000	9.221271
1985.000000	9.221692
1984.000000	9.222131
1983.000000	9.222931
1982.000000	9.224276
1981.000000	9.226011
1980.000000	9.227870
1979.000000	9.229766
1978.000000	9.231724
1977.000000	9.233618
1976.000000	9.235165
1975.000000	9.236195
1974.000000	9.236830
1973.000000	9.237377
1972.000000	9.238120
1971.000000	9.239204
1970.000000	9.240626
1969.000000	9.242238
1968.000000	9.243788
1967.000000	9.245035
1966.000000	9.245880
1965.000000	9.246404
1964.000000	9.246784
1963.000000	9.247201
1962.000000	9.247826
1961.000000	9.248817
1960.000000	9.250193
1959.000000	9.251686
1958.000000	9.252862
1957.000000	9.253480
1956.000000	9.253700
1955.000000	9.253890
1954.000000	9.254297
1953.000000	9.254959
1952.000000	9.255823
1951.000000	9.256814
1950.000000	9.257819
1949.000000	9.258706
1948.000000	9.259383
1947.000000	9.259835
1946.000000	9.260166
1945.000000	9.260599
1944.000000	9.261303
1943.000000	9.262125
1942.000000	9.262663
1941.000000	9.262719
1940.000000	9.262571
1939.000000	9.262627
1938.000000	9.262921
1937.000000	9.263129
1936.000000	9.262998
1935.000000	9.262559
1934.000000	9.261987
1933.000000	9.261483
1932.000000	9.261299
1931.000000	9.261612
1930.000000	9.262251
1929.000000	9.262729
1928.000000	9.262696
1927.000000	9.262334
1926.000000	9.262204
1925.000000	9.262651
1924.000000	9.263402
1923.000000	9.263843
1922.000000	9.263761
1921.000000	9.263691
1920.000000	9.264292
1919.000000	9.265389
1918.000000	9.265935
1917.000000	9.265117
1916.000000	9.263232
1915.000000	9.261280
1914.000000	9.259926
1913.000000	9.259156
1912.000000	9.258736
1911.000000	9.258534
1910.000000	9.258415
1909.000000	9.258212
1908.000000	9.257927
1907.000000	9.257704
1906.000000	9.257523
1905.000000	9.257142
1904.000000	9.256434
1903.000000	9.255602
1902.000000	9.254953
1901.000000	9.254597
1900.000000	9.254436
1899.000000	9.254326
1898.000000	9.254176
1897.000000	9.253947
1896.000000	9.253604
1895.000000	9.253082
1894.000000	9.252392
1893.000000	9.251757
1892.000000	9.251467
1891.000000	9.251451
1890.000000	9.251162
1889.000000	9.250149
1888.000000	9.248634
1887.000000	9.247286
1886.000000	9.246471
1885.000000	9.245960
1884.000000	9.245310
1883.000000	9.244320
1882.000000	9.243118
1881.000000	9.242008
1880.000000	9.241213
1879.000000	9.240610
1878.000000	9.239792
1877.000000	9.238546
1876.000000	9.237146
1875.000000	9.235990
1874.000000	9.235156
1873.000000	9.234595
1872.000000	9.234476
1871.000000	9.234886
1870.000000	9.235269
1869.000000	9.234727
1868.000000	9.232957
1867.000000	9.230519
1866.000000	9.228124
1865.000000	9.226057
1864.000000	9.224336
1863.000000	9.222949
1862.000000	9.221765
1861.000000	9.220556
1860.000000	9.219303
1859.000000	9.218213
1858.000000	9.217292
1857.000000	9.216237
1856.000000	9.214835
1855.000000	9.213179
1854.000000	9.211376
1853.000000	9.209440
1852.000000	9.207595
1851.000000	9.206258
1850.000000	9.205466
1849.000000	9.204761
1848.000000	9.203979
1847.000000	9.203708
1846.000000	9.204386
1845.000000	9.205135
1844.000000	9.204180
1843.000000	9.200641
1842.000000	9.195561
1841.000000	9.190926
1840.000000	9.187892
1839.000000	9.186101
1838.000000	9.184501
1837.000000	9.182482
1836.000000	9.180164
1835.000000	9.177918
1834.000000	9.176034
1833.000000	9.174786
1832.000000	9.174285
1831.000000	9.173974
1830.000000	9.172734
1829.000000	9.170008
1828.000000	9.166609
1827.000000	9.163822
1826.000000	9.161824
1825.000000	9.159589
1824.000000	9.156371
1823.000000	9.152633
1822.000000	9.149280
1821.000000	9.146580
1820.000000	9.144185
1819.000000	9.141785
1818.000000	9.139329
1817.000000	9.136852
1816.000000	9.134474
1815.000000	9.132403
1814.000000	9.130658
1813.000000	9.128908
1812.000000	9.126759
1811.000000	9.124089
1810.000000	9.121005
1809.000000	9.117705
1808.000000	9.114492
1807.000000	9.111636
1806.000000	9.109077
1805.000000	9.106509
1804.000000	9.103877
1803.000000	9.101483
1802.000000	9.099441
1801.000000	9.097340
1800.000000	9.094659
1799.000000	9.091261
1798.000000	9.087422
1797.000000	9.083752
1796.000000	9.081185
1795.000000	9.080412
1794.000000	9.080859
1793.000000	9.080613
1792.000000	9.077935
1791.000000	9.072788
1790.000000	9.066638
1789.000000	9.061080
1788.000000	9.056917
1787.000000	9.054036
1786.000000	9.051593
1785.000000	9.048523
1784.000000	9.044451
1783.000000	9.040039
1782.000000	9.036162
1781.000000	9.032930
1780.000000	9.029825
1779.000000	9.026466
1778.000000	9.022899
1777.000000	9.019542
1776.000000	9.017314
1775.000000	9.017195
1774.000000	9.018757
1773.000000	9.019445
1772.000000	9.016543
1771.000000	9.010086
1770.000000	9.002829
1769.000000	8.997082
1768.000000	8.992535
1767.000000	8.987649
1766.000000	8.982256
1765.000000	8.977809
1764.000000	8.975308
1763.000000	8.973869
1762.000000	8.971575
1761.000000	8.967435
1760.000000	8.962311
1759.000000	8.957908
1758.000000	8.954896
1757.000000	8.952177
1756.000000	8.948311
1755.000000	8.943550
1754.000000	8.939809
1753.000000	8.938352
1752.000000	8.938101
1751.000000	8.936719
1750.000000	8.933030
1749.000000	8.927759
1748.000000	8.922247
1747.000000	8.917310
1746.000000	8.913260
1745.000000	8.910151
1744.000000	8.907719
1743.000000	8.905657
1742.000000	8.904051
1741.000000	8.902883
1740.000000	8.901130
1739.000000	8.897631
1738.000000	8.893474
1737.000000	8.892110
1736.000000	8.895480
1735.000000	8.900513
1734.000000	8.901269
1733.000000	8.895134
1732.000000	8.885421
1731.000000	8.877266
1730.000000	8.872636
1729.000000	8.870115
1728.000000	8.867934
1727.000000	8.865635
1726.000000	8.863389
1725.000000	8.861223
1724.000000	8.859123
1723.000000	8.857217
1722.000000	8.856005
1721.000000	8.856773
1720.000000	8.860883
1719.000000	8.867503
1718.000000	8.872731
1717.000000	8.872660
1716.000000	8.867326
1715.000000	8.860208
1714.000000	8.854166
1713.000000	8.849589
1712.000000	8.846171
1711.000000	8.844225
1710.000000	8.843666
1709.000000	8.843580
1708.000000	8.843634
1707.000000	8.844312
1706.000000	8.845124
1705.000000	8.844711
1704.000000	8.843961
1703.000000	8.846492
1702.000000	8.853699
1701.000000	8.861104
1700.000000	8.862880
1699.000000	8.859396
1698.000000	8.856551
1697.000000	8.857426
1696.000000	8.858196
1695.000000	8.853674
1694.000000	8.844390
1693.000000	8.835829
1692.000000	8.832061
1691.000000	8.832370
1690.000000	8.833622
1689.000000	8.834421
1688.000000	8.836486
1687.000000	8.842192
1686.000000	8.850772
1685.000000	8.857325
1684.000000	8.856781
1683.000000	8.849185
1682.000000	8.839641
1681.000000	8.832879
1680.000000	8.829585
1679.000000	8.828380
1678.000000	8.829110
1677.000000	8.832214
1676.000000	8.835957
1675.000000	8.837046
1674.000000	8.834544
1673.000000	8.831315
1672.000000	8.830629
1671.000000	8.832480
1670.000000	8.834046
1669.000000	8.832989
1668.000000	8.829541
1667.000000	8.825846
1666.000000	8.824087
1665.000000	8.824983
1664.000000	8.827228
1663.000000	8.828364
1662.000000	8.826928
1661.000000	8.823859
1660.000000	8.821350
1659.000000	8.820533
1658.000000	8.821311
1657.000000	8.824514
1656.000000	8.832509
1655.000000	8.845775
1654.000000	8.859151
1653.000000	8.864047
1652.000000	8.856527
1651.000000	8.842105
1650.000000	8.830701
1649.000000	8.827765
1648.000000	8.831009
1647.000000	8.834347
1646.000000	8.833633
1645.000000	8.828979
1644.000000	8.823200
1643.000000	8.819107
1642.000000	8.817663
1641.000000	8.817907
1640.000000	8.818759
1639.000000	8.820804
1638.000000	8.825402
1637.000000	8.831796
1636.000000	8.836310
1635.000000	8.835529
1634.000000	8.829834
1633.000000	8.822878
1632.000000	8.818075
1631.000000	8.816417
1630.000000	8.816953
1629.000000	8.818154
1628.000000	8.818889
1627.000000	8.819096
1626.000000	8.819788
1625.000000	8.821798
1624.000000	8.824336
1623.000000	8.825385
1622.000000	8.823979
1621.000000	8.821794
1620.000000	8.821998
1619.000000	8.826253
1618.000000	8.832663
1617.000000	8.836756
1616.000000	8.835126
1615.000000	8.828524
1614.000000	8.821091
1613.000000	8.816498
1612.000000	8.815238
1611.000000	8.815533
1610.000000	8.815914
1609.000000	8.816176
1608.000000	8.816411
1607.000000	8.816375
1606.000000	8.816010
1605.000000	8.815713
1604.000000	8.815761
1603.000000	8.815956
1602.000000	8.816057
1601.000000	8.816083
1600.000000	8.816030
1599.000000	8.815733
1598.000000	8.815247
1597.000000	8.814971
1596.000000	8.815115
1595.000000	8.815354
1594.000000	8.815225
1593.000000	8.814658
1592.000000	8.813916
1591.000000	8.813233
1590.000000	8.812717
1589.000000	8.812443
1588.000000	8.812423
1587.000000	8.812554
1586.000000	8.812736
1585.000000	8.813011
1584.000000	8.813424
1583.000000	8.813769
1582.000000	8.813689
1581.000000	8.813376
1580.000000	8.814229
1579.000000	8.818151
1578.000000	8.825306
1577.000000	8.832472
1576.000000	8.834849
1575.000000	8.830629
1574.000000	8.823318
1573.000000	8.818521
1572.000000	8.818711
1571.000000	8.821701
1570.000000	8.823707
1569.000000	8.823027
1568.000000	8.820681
1567.000000	8.818469
1566.000000	8.817169
1565.000000	8.816466
1564.000000	8.816364
1563.000000	8.818577
1562.000000	8.825720
1561.000000	8.837899
1560.000000	8.850170
1559.000000	8.855324
1558.000000	8.850681
1557.000000	8.840909
1556.000000	8.832868
1555.000000	8.829022
1554.000000	8.826933
1553.000000	8.823892
1552.000000	8.820066
1551.000000	8.817137
1550.000000	8.815744
1549.000000	8.815370
1548.000000	8.815782
1547.000000	8.817423
1546.000000	8.820516
1545.000000	8.824608
1544.000000	8.829289
1543.000000	8.834923
1542.000000	8.841967
1541.000000	8.849147
1540.000000	8.852778
1539.000000	8.849319
1538.000000	8.839482
1537.000000	8.828831
1536.000000	8.823148
1535.000000	8.823385
1534.000000	8.825701
1533.000000	8.826067
1532.000000	8.823835
1531.000000	8.820879
1530.000000	8.818973
1529.000000	8.818850
1528.000000	8.820457
1527.000000	8.822904
1526.000000	8.824941
1525.000000	8.826582
1524.000000	8.829453
1523.000000	8.834275
1522.000000	8.838641
1521.000000	8.839029
1520.000000	8.835044
1519.000000	8.829974
1518.000000	8.826834
1517.000000	8.825505
1516.000000	8.824324
1515.000000	8.822914
1514.000000	8.822102
1513.000000	8.821972
1512.000000	8.821787
1511.000000	8.821964
1510.000000	8.824716
1509.000000	8.831695
1508.000000	8.841113
1507.000000	8.847841
1506.000000	8.847149
1505.000000	8.838848
1504.000000	8.827592
1503.000000	8.818900
1502.000000	8.815114
1501.000000	8.815027
1500.000000	8.816634
